Model,DPO2002B
Firmware Version,1.52

Point Format,Y,
Horizontal Units,S,
Horizontal Scale,0.2,
Sample Interval,0.000384025,
Filter Frequency,7e+07,
Record Length,5207,
Gating,0.0% to 100.0%,
Probe Attenuation,10,
Vertical Units,V,
Vertical Offset,0.6,
Vertical Scale,0.5,
Label,,
TIME,CH1,CH1 Peak Detect
-3.6880e-01,-0.94,-1.16
-3.6842e-01,-0.98,-0.7
-3.6803e-01,-0.88,-1.16
-3.6765e-01,-0.88,-0.68
-3.6726e-01,-0.92,-1.18
-3.6688e-01,-1,-0.68
-3.6650e-01,-0.88,-1.14
-3.6611e-01,-0.9,-0.66
-3.6573e-01,-0.82,-1.16
-3.6534e-01,-1,-0.64
-3.6496e-01,-0.92,-1.18
-3.6458e-01,-0.96,-0.68
-3.6419e-01,-0.94,-1.18
-3.6381e-01,-0.92,-0.66
-3.6342e-01,-0.82,-1.18
-3.6304e-01,-0.94,-0.66
-3.6266e-01,-0.9,-1.16
-3.6227e-01,-0.9,-0.64
-3.6189e-01,-0.84,-1.22
-3.6150e-01,-0.92,-0.7
-3.6112e-01,-0.86,-1.22
-3.6074e-01,-0.86,-0.66
-3.6035e-01,-0.92,-1.18
-3.5997e-01,-0.98,-0.66
-3.5958e-01,-0.76,-1.16
-3.5920e-01,-0.92,-0.64
-3.5882e-01,-0.98,-1.18
-3.5843e-01,-0.98,-0.62
-3.5805e-01,-0.98,-1.16
-3.5766e-01,-0.84,-0.68
-3.5728e-01,-0.84,-1.14
-3.5690e-01,-0.96,-0.66
-3.5651e-01,-0.84,-1.16
-3.5613e-01,-0.82,-0.7
-3.5574e-01,-0.96,-1.18
-3.5536e-01,-0.98,-0.66
-3.5498e-01,-0.94,-1.18
-3.5459e-01,-0.94,-0.72
-3.5421e-01,-0.78,-1.18
-3.5382e-01,-0.88,-0.68
-3.5344e-01,-1.02,-1.18
-3.5305e-01,-1,-0.66
-3.5267e-01,-0.84,-1.14
-3.5229e-01,-0.88,-0.68
-3.5190e-01,-0.94,-1.14
-3.5152e-01,-0.88,-0.64
-3.5113e-01,-0.96,-1.2
-3.5075e-01,-0.94,-0.72
-3.5037e-01,-0.98,-1.16
-3.4998e-01,-0.88,-0.68
-3.4960e-01,-1,-1.12
-3.4921e-01,-0.94,-0.66
-3.4883e-01,-0.92,-1.16
-3.4845e-01,-0.98,-0.64
-3.4806e-01,-0.88,-1.18
-3.4768e-01,-0.94,-0.7
-3.4729e-01,-0.9,-1.14
-3.4691e-01,-0.94,-0.64
-3.4653e-01,-0.98,-1.12
-3.4614e-01,-0.96,-0.66
-3.4576e-01,-0.9,-1.18
-3.4537e-01,-1.04,-0.68
-3.4499e-01,-0.86,-1.2
-3.4461e-01,-0.88,-0.68
-3.4422e-01,-0.9,-1.18
-3.4384e-01,-0.84,-0.72
-3.4345e-01,-1.02,-1.16
-3.4307e-01,-0.88,-0.66
-3.4269e-01,-0.88,-1.16
-3.4230e-01,-0.78,-0.66
-3.4192e-01,-1,-1.18
-3.4153e-01,-0.94,-0.68
-3.4115e-01,-0.94,-1.16
-3.4077e-01,-0.98,-0.68
-3.4038e-01,-0.8,-1.16
-3.4000e-01,-0.94,-0.72
-3.3961e-01,-0.92,-1.16
-3.3923e-01,-0.96,-0.62
-3.3885e-01,-0.86,-1.14
-3.3846e-01,-0.94,-0.58
-3.3808e-01,-0.9,-1.16
-3.3769e-01,-0.88,-0.68
-3.3731e-01,-0.92,-1.24
-3.3693e-01,-1.02,-0.66
-3.3654e-01,-0.9,-1.18
-3.3616e-01,-0.76,-0.66
-3.3577e-01,-1,-1.16
-3.3539e-01,-0.88,-0.7
-3.3501e-01,-0.86,-1.16
-3.3462e-01,-0.98,-0.7
-3.3424e-01,-0.84,-1.14
-3.3385e-01,-0.82,-0.68
-3.3347e-01,-0.96,-1.24
-3.3309e-01,-0.82,-0.66
-3.3270e-01,-0.8,-1.14
-3.3232e-01,-0.84,-0.68
-3.3193e-01,-0.88,-1.14
-3.3155e-01,-0.84,-0.62
-3.3117e-01,-1.06,-1.2
-3.3078e-01,-0.96,-0.68
-3.3040e-01,-0.92,-1.14
-3.3001e-01,-0.9,-0.68
-3.2963e-01,-0.86,-1.16
-3.2925e-01,-0.96,-0.7
-3.2886e-01,-0.86,-1.16
-3.2848e-01,-0.82,-0.64
-3.2809e-01,-0.86,-1.18
-3.2771e-01,-1,-0.66
-3.2733e-01,-0.96,-1.16
-3.2694e-01,-0.9,-0.62
-3.2656e-01,-0.86,-1.18
-3.2617e-01,-0.88,-0.68
-3.2579e-01,-0.96,-1.16
-3.2541e-01,-0.9,-0.68
-3.2502e-01,-1.06,-1.18
-3.2464e-01,-0.82,-0.68
-3.2425e-01,-0.94,-1.14
-3.2387e-01,-1.06,-0.64
-3.2349e-01,-0.96,-1.14
-3.2310e-01,-0.96,-0.66
-3.2272e-01,-0.92,-1.22
-3.2233e-01,-0.92,-0.66
-3.2195e-01,-0.94,-1.18
-3.2156e-01,-0.94,-0.66
-3.2118e-01,-0.88,-1.16
-3.2080e-01,-0.9,-0.66
-3.2041e-01,-0.84,-1.2
-3.2003e-01,-0.8,-0.62
-3.1964e-01,-0.94,-1.26
-3.1926e-01,-0.98,-0.7
-3.1888e-01,-0.98,-1.14
-3.1849e-01,-0.82,-0.68
-3.1811e-01,-0.92,-1.22
-3.1772e-01,-1.04,-0.66
-3.1734e-01,-0.92,-1.2
-3.1696e-01,-0.92,-0.7
-3.1657e-01,-0.88,-1.18
-3.1619e-01,-0.84,-0.64
-3.1580e-01,-0.88,-1.14
-3.1542e-01,-0.9,-0.64
-3.1504e-01,-0.86,-1.18
-3.1465e-01,-0.98,-0.68
-3.1427e-01,-0.94,-1.14
-3.1388e-01,-0.92,-0.66
-3.1350e-01,-0.92,-1.14
-3.1312e-01,-0.86,-0.66
-3.1273e-01,-0.82,-1.16
-3.1235e-01,-0.8,-0.68
-3.1196e-01,-0.8,-1.18
-3.1158e-01,-0.96,-0.64
-3.1120e-01,-0.88,-1.14
-3.1081e-01,-0.84,-0.66
-3.1043e-01,-0.82,-1.14
-3.1004e-01,-0.94,-0.68
-3.0966e-01,-0.9,-1.12
-3.0928e-01,-0.96,-0.7
-3.0889e-01,-0.98,-1.2
-3.0851e-01,-0.94,-0.64
-3.0812e-01,-0.94,-1.18
-3.0774e-01,-0.84,-0.68
-3.0736e-01,-0.98,-1.18
-3.0697e-01,-0.86,-0.64
-3.0659e-01,-1,-1.24
-3.0620e-01,-0.96,-0.66
-3.0582e-01,-1,-1.16
-3.0544e-01,-0.8,-0.68
-3.0505e-01,-1.02,-1.18
-3.0467e-01,-0.86,-0.62
-3.0428e-01,-0.94,-1.22
-3.0390e-01,-1,-0.68
-3.0352e-01,-0.78,-1.2
-3.0313e-01,-0.86,-0.64
-3.0275e-01,-0.82,-1.18
-3.0236e-01,-0.92,-0.62
-3.0198e-01,-0.98,-1.16
-3.0160e-01,-1.02,-0.68
-3.0121e-01,-0.88,-1.22
-3.0083e-01,-0.86,-0.68
-3.0044e-01,-1.04,-1.16
-3.0006e-01,-0.9,-0.7
-2.9968e-01,-0.8,-1.18
-2.9929e-01,-0.92,-0.68
-2.9891e-01,-0.92,-1.12
-2.9852e-01,-0.92,-0.68
-2.9814e-01,-1.02,-1.2
-2.9776e-01,-0.92,-0.66
-2.9737e-01,-0.9,-1.16
-2.9699e-01,-1,-0.7
-2.9660e-01,-0.86,-1.16
-2.9622e-01,-0.82,-0.68
-2.9584e-01,-0.98,-1.24
-2.9545e-01,-0.94,-0.7
-2.9507e-01,-0.96,-1.16
-2.9468e-01,-0.98,-0.7
-2.9430e-01,-0.92,-1.16
-2.9392e-01,-0.94,-0.68
-2.9353e-01,-0.94,-1.2
-2.9315e-01,-0.92,-0.68
-2.9276e-01,-0.82,-1.2
-2.9238e-01,-0.92,-0.62
-2.9200e-01,-1,-1.14
-2.9161e-01,-1.02,-0.7
-2.9123e-01,-0.82,-1.14
-2.9084e-01,-0.88,-0.62
-2.9046e-01,-1.1,-1.14
-2.9007e-01,-0.8,-0.64
-2.8969e-01,-0.92,-1.18
-2.8931e-01,-0.82,-0.68
-2.8892e-01,-1,-1.18
-2.8854e-01,-0.96,-0.66
-2.8815e-01,-0.96,-1.18
-2.8777e-01,-0.8,-0.66
-2.8739e-01,-1,-1.14
-2.8700e-01,-0.86,-0.66
-2.8662e-01,-0.88,-1.14
-2.8623e-01,-0.88,-0.72
-2.8585e-01,-0.86,-1.16
-2.8547e-01,-0.9,-0.68
-2.8508e-01,-0.88,-1.18
-2.8470e-01,-0.78,-0.64
-2.8431e-01,-0.92,-1.14
-2.8393e-01,-1.02,-0.68
-2.8355e-01,-1,-1.14
-2.8316e-01,-0.76,-0.72
-2.8278e-01,-0.98,-1.18
-2.8239e-01,-0.9,-0.64
-2.8201e-01,-0.86,-1.18
-2.8163e-01,-1,-0.66
-2.8124e-01,-0.88,-1.14
-2.8086e-01,-1,-0.66
-2.8047e-01,-0.94,-1.14
-2.8009e-01,-1.06,-0.68
-2.7971e-01,-1.04,-1.14
-2.7932e-01,-0.92,-0.7
-2.7894e-01,-0.88,-1.18
-2.7855e-01,-0.86,-0.66
-2.7817e-01,-0.92,-1.16
-2.7779e-01,-0.98,-0.72
-2.7740e-01,-0.92,-1.22
-2.7702e-01,-0.92,-0.66
-2.7663e-01,-0.94,-1.18
-2.7625e-01,-0.8,-0.68
-2.7587e-01,-0.82,-1.2
-2.7548e-01,-0.86,-0.66
-2.7510e-01,-0.88,-1.16
-2.7471e-01,-0.92,-0.7
-2.7433e-01,-0.94,-1.14
-2.7395e-01,-1,-0.68
-2.7356e-01,-1,-1.2
-2.7318e-01,-0.92,-0.68
-2.7279e-01,-0.88,-1.18
-2.7241e-01,-0.92,-0.62
-2.7203e-01,-0.84,-1.22
-2.7164e-01,-0.96,-0.66
-2.7126e-01,-0.92,-1.16
-2.7087e-01,-0.82,-0.7
-2.7049e-01,-0.98,-1.18
-2.7011e-01,-0.84,-0.58
-2.6972e-01,-0.98,-1.18
-2.6934e-01,-0.88,-0.64
-2.6895e-01,-0.96,-1.16
-2.6857e-01,-0.94,-0.66
-2.6819e-01,-0.94,-1.18
-2.6780e-01,-0.96,-0.7
-2.6742e-01,-0.94,-1.16
-2.6703e-01,-1,-0.66
-2.6665e-01,-0.86,-1.14
-2.6627e-01,-1.04,-0.68
-2.6588e-01,-0.94,-1.16
-2.6550e-01,-0.88,-0.66
-2.6511e-01,-0.94,-1.22
-2.6473e-01,-0.78,-0.64
-2.6435e-01,-0.92,-1.14
-2.6396e-01,-0.9,-0.68
-2.6358e-01,-0.78,-1.16
-2.6319e-01,-0.72,-0.68
-2.6281e-01,-0.9,-1.22
-2.6243e-01,-0.92,-0.62
-2.6204e-01,-1,-1.18
-2.6166e-01,-0.9,-0.66
-2.6127e-01,-0.94,-1.18
-2.6089e-01,-0.84,-0.66
-2.6051e-01,-0.92,-1.16
-2.6012e-01,-1,-0.68
-2.5974e-01,-0.94,-1.16
-2.5935e-01,-0.9,-0.66
-2.5897e-01,-1,-1.18
-2.5858e-01,-0.88,-0.72
-2.5820e-01,-0.86,-1.16
-2.5782e-01,-0.8,-0.64
-2.5743e-01,-1,-1.16
-2.5705e-01,-0.9,-0.68
-2.5666e-01,-0.94,-1.18
-2.5628e-01,-0.92,-0.6
-2.5590e-01,-0.92,-1.18
-2.5551e-01,-0.96,-0.64
-2.5513e-01,-0.86,-1.2
-2.5474e-01,-0.96,-0.68
-2.5436e-01,-0.96,-1.18
-2.5398e-01,-0.8,-0.68
-2.5359e-01,-0.92,-1.22
-2.5321e-01,-0.84,-0.64
-2.5282e-01,-0.98,-1.14
-2.5244e-01,-0.82,-0.68
-2.5206e-01,-0.86,-1.2
-2.5167e-01,-0.98,-0.7
-2.5129e-01,-0.98,-1.18
-2.5090e-01,-1,-0.66
-2.5052e-01,-0.98,-1.14
-2.5014e-01,-0.86,-0.66
-2.4975e-01,-0.88,-1.14
-2.4937e-01,-0.92,-0.64
-2.4898e-01,-0.94,-1.22
-2.4860e-01,-1.12,-0.68
-2.4822e-01,-0.88,-1.2
-2.4783e-01,-0.88,-0.66
-2.4745e-01,-0.92,-1.16
-2.4706e-01,-0.88,-0.66
-2.4668e-01,-0.88,-1.16
-2.4630e-01,-0.84,-0.68
-2.4591e-01,-0.9,-1.2
-2.4553e-01,-0.88,-0.68
-2.4514e-01,-1.14,-1.16
-2.4476e-01,-1,-0.68
-2.4438e-01,-0.92,-1.16
-2.4399e-01,-0.9,-0.68
-2.4361e-01,-0.92,-1.16
-2.4322e-01,-0.96,-0.68
-2.4284e-01,-0.86,-1.2
-2.4246e-01,-0.86,-0.72
-2.4207e-01,-0.88,-1.18
-2.4169e-01,-0.92,-0.64
-2.4130e-01,-0.9,-1.14
-2.4092e-01,-0.9,-0.64
-2.4054e-01,-0.8,-1.16
-2.4015e-01,-0.92,-0.68
-2.3977e-01,-0.82,-1.18
-2.3938e-01,-0.98,-0.66
-2.3900e-01,-0.92,-1.2
-2.3862e-01,-1.06,-0.64
-2.3823e-01,-0.88,-1.18
-2.3785e-01,-0.9,-0.62
-2.3746e-01,-0.94,-1.2
-2.3708e-01,-0.86,-0.68
-2.3670e-01,-0.98,-1.16
-2.3631e-01,-0.82,-0.54
-2.3593e-01,-1,-1.16
-2.3554e-01,-0.86,-0.68
-2.3516e-01,-0.98,-1.14
-2.3478e-01,-0.8,-0.68
-2.3439e-01,-0.92,-1.14
-2.3401e-01,-0.78,-0.66
-2.3362e-01,-0.88,-1.16
-2.3324e-01,-0.88,-0.66
-2.3286e-01,-0.84,-1.16
-2.3247e-01,-0.88,-0.68
-2.3209e-01,-0.86,-1.16
-2.3170e-01,-0.98,-0.7
-2.3132e-01,-0.94,-1.16
-2.3094e-01,-0.9,-0.66
-2.3055e-01,-0.94,-1.22
-2.3017e-01,-0.84,-0.66
-2.2978e-01,-0.96,-1.14
-2.2940e-01,-0.94,-0.68
-2.2902e-01,-0.96,-1.16
-2.2863e-01,-0.96,-0.68
-2.2825e-01,-0.88,-1.14
-2.2786e-01,-0.9,-0.66
-2.2748e-01,-0.96,-1.2
-2.2709e-01,-1,-0.64
-2.2671e-01,-0.84,-1.18
-2.2633e-01,-0.82,-0.7
-2.2594e-01,-0.88,-1.16
-2.2556e-01,-1.08,-0.72
-2.2517e-01,-0.96,-1.18
-2.2479e-01,-0.94,-0.68
-2.2441e-01,-0.92,-1.14
-2.2402e-01,-0.92,-0.66
-2.2364e-01,-0.98,-1.2
-2.2325e-01,-0.86,-0.68
-2.2287e-01,-0.82,-1.14
-2.2249e-01,-0.92,-0.66
-2.2210e-01,-0.8,-1.22
-2.2172e-01,-0.9,-0.66
-2.2133e-01,-0.86,-1.14
-2.2095e-01,-0.96,-0.68
-2.2057e-01,-0.88,-1.2
-2.2018e-01,-0.92,-0.68
-2.1980e-01,-0.86,-1.18
-2.1941e-01,-0.82,-0.64
-2.1903e-01,-0.88,-1.18
-2.1865e-01,-0.92,-0.7
-2.1826e-01,-0.88,-1.18
-2.1788e-01,-0.92,-0.68
-2.1749e-01,-1,-1.18
-2.1711e-01,-0.88,-0.66
-2.1673e-01,-0.86,-1.16
-2.1634e-01,-0.9,-0.66
-2.1596e-01,-0.98,-1.2
-2.1557e-01,-0.88,-0.68
-2.1519e-01,-0.92,-1.18
-2.1481e-01,-0.86,-0.66
-2.1442e-01,-0.84,-1.14
-2.1404e-01,-0.94,-0.62
-2.1365e-01,-0.88,-1.22
-2.1327e-01,-0.9,-0.66
-2.1289e-01,-0.88,-1.22
-2.1250e-01,-0.86,-0.66
-2.1212e-01,-0.82,-1.2
-2.1173e-01,-1.12,-0.64
-2.1135e-01,-0.92,-1.16
-2.1097e-01,-0.9,-0.7
-2.1058e-01,-0.86,-1.2
-2.1020e-01,-1.02,-0.66
-2.0981e-01,-0.96,-1.2
-2.0943e-01,-1,-0.68
-2.0905e-01,-0.84,-1.12
-2.0866e-01,-0.84,-0.62
-2.0828e-01,-0.86,-1.16
-2.0789e-01,-0.94,-0.66
-2.0751e-01,-0.94,-1.24
-2.0713e-01,-0.94,-0.68
-2.0674e-01,-0.78,-1.18
-2.0636e-01,-0.86,-0.66
-2.0597e-01,-0.98,-1.22
-2.0559e-01,-0.94,-0.66
-2.0521e-01,-0.94,-1.14
-2.0482e-01,-0.84,-0.64
-2.0444e-01,-0.92,-1.16
-2.0405e-01,-0.94,-0.64
-2.0367e-01,-0.98,-1.14
-2.0329e-01,-0.98,-0.66
-2.0290e-01,-0.84,-1.18
-2.0252e-01,-0.88,-0.68
-2.0213e-01,-0.96,-1.14
-2.0175e-01,-0.94,-0.72
-2.0137e-01,-0.9,-1.18
-2.0098e-01,-0.76,-0.66
-2.0060e-01,-0.8,-1.2
-2.0021e-01,-0.98,-0.68
-1.9983e-01,-0.92,-1.12
-1.9945e-01,-0.96,-0.64
-1.9906e-01,-0.96,-1.14
-1.9868e-01,-0.9,-0.62
-1.9829e-01,-0.82,-1.18
-1.9791e-01,-0.96,-0.66
-1.9752e-01,-0.82,-1.2
-1.9714e-01,-0.88,-0.68
-1.9676e-01,-0.92,-1.22
-1.9637e-01,-0.92,-0.66
-1.9599e-01,-0.92,-1.14
-1.9560e-01,-0.9,-0.66
-1.9522e-01,-0.94,-1.2
-1.9484e-01,-0.96,-0.68
-1.9445e-01,-0.8,-1.18
-1.9407e-01,-1.02,-0.66
-1.9368e-01,-0.82,-1.18
-1.9330e-01,-0.92,-0.68
-1.9292e-01,-0.98,-1.22
-1.9253e-01,-0.86,-0.68
-1.9215e-01,-0.98,-1.16
-1.9176e-01,-0.92,-0.64
-1.9138e-01,-0.96,-1.12
-1.9100e-01,-0.96,-0.64
-1.9061e-01,-0.98,-1.18
-1.9023e-01,-0.92,-0.68
-1.8984e-01,-0.88,-1.18
-1.8946e-01,-0.84,-0.68
-1.8908e-01,-0.86,-1.14
-1.8869e-01,-0.92,-0.66
-1.8831e-01,-0.92,-1.2
-1.8792e-01,-0.98,-0.66
-1.8754e-01,-0.98,-1.2
-1.8716e-01,-0.94,-0.64
-1.8677e-01,-0.9,-1.2
-1.8639e-01,-1.04,-0.7
-1.8600e-01,-0.9,-1.24
-1.8562e-01,-0.84,-0.64
-1.8524e-01,-0.86,-1.2
-1.8485e-01,-0.98,-0.68
-1.8447e-01,-0.8,-1.18
-1.8408e-01,-0.96,-0.6
-1.8370e-01,-0.82,-1.18
-1.8332e-01,-0.82,-0.68
-1.8293e-01,-0.92,-1.16
-1.8255e-01,-0.94,-0.64
-1.8216e-01,-0.96,-1.2
-1.8178e-01,-0.98,-0.68
-1.8140e-01,-0.84,-1.22
-1.8101e-01,-0.8,-0.64
-1.8063e-01,-0.96,-1.18
-1.8024e-01,-0.98,-0.68
-1.7986e-01,-1.04,-1.16
-1.7948e-01,-0.9,-0.68
-1.7909e-01,-0.84,-1.14
-1.7871e-01,-0.94,-0.64
-1.7832e-01,-0.92,-1.18
-1.7794e-01,-0.92,-0.68
-1.7756e-01,-0.9,-1.16
-1.7717e-01,-0.82,-0.66
-1.7679e-01,-0.9,-1.22
-1.7640e-01,-0.94,-0.68
-1.7602e-01,-0.88,-1.24
-1.7564e-01,-0.9,-0.72
-1.7525e-01,-0.82,-1.18
-1.7487e-01,-0.98,-0.74
-1.7448e-01,-0.98,-1.2
-1.7410e-01,-0.94,-0.64
-1.7372e-01,-0.88,-1.22
-1.7333e-01,-0.82,-0.72
-1.7295e-01,-0.86,-1.16
-1.7256e-01,-0.94,-0.64
-1.7218e-01,-0.92,-1.16
-1.7180e-01,-1.06,-0.66
-1.7141e-01,-0.88,-1.22
-1.7103e-01,-0.9,-0.62
-1.7064e-01,-0.94,-1.2
-1.7026e-01,-0.92,-0.72
-1.6988e-01,-0.84,-1.16
-1.6949e-01,-0.94,-0.68
-1.6911e-01,-0.84,-1.18
-1.6872e-01,-0.88,-0.7
-1.6834e-01,-0.96,-1.2
-1.6796e-01,-0.88,-0.66
-1.6757e-01,-0.94,-1.18
-1.6719e-01,-1.02,-0.66
-1.6680e-01,-0.9,-1.18
-1.6642e-01,-0.96,-0.6
-1.6603e-01,-0.92,-1.18
-1.6565e-01,-0.8,-0.62
-1.6527e-01,-0.82,-1.18
-1.6488e-01,-1.06,-0.62
-1.6450e-01,-0.86,-1.16
-1.6411e-01,-0.92,-0.64
-1.6373e-01,-0.92,-1.14
-1.6335e-01,-0.92,-0.66
-1.6296e-01,-0.92,-1.24
-1.6258e-01,-1.08,-0.68
-1.6219e-01,-0.86,-1.16
-1.6181e-01,-0.78,-0.68
-1.6143e-01,-0.94,-1.18
-1.6104e-01,-0.96,-0.68
-1.6066e-01,-0.94,-1.18
-1.6027e-01,-1.02,-0.7
-1.5989e-01,-0.9,-1.2
-1.5951e-01,-0.94,-0.72
-1.5912e-01,-0.92,-1.16
-1.5874e-01,-0.98,-0.66
-1.5835e-01,-0.88,-1.16
-1.5797e-01,-0.94,-0.68
-1.5759e-01,-1,-1.16
-1.5720e-01,-0.86,-0.64
-1.5682e-01,-0.88,-1.14
-1.5643e-01,-1.08,-0.66
-1.5605e-01,-0.92,-1.16
-1.5567e-01,-0.9,-0.66
-1.5528e-01,-1,-1.16
-1.5490e-01,-0.8,-0.68
-1.5451e-01,-0.9,-1.18
-1.5413e-01,-0.9,-0.6
-1.5375e-01,-0.92,-1.18
-1.5336e-01,-0.84,-0.68
-1.5298e-01,-1.08,-1.16
-1.5259e-01,-0.9,-0.68
-1.5221e-01,-0.8,-1.2
-1.5183e-01,-0.9,-0.68
-1.5144e-01,-0.88,-1.18
-1.5106e-01,-0.9,-0.66
-1.5067e-01,-0.94,-1.14
-1.5029e-01,-0.94,-0.66
-1.4991e-01,-0.84,-1.2
-1.4952e-01,-1.02,-0.7
-1.4914e-01,-1.02,-1.14
-1.4875e-01,-0.98,-0.66
-1.4837e-01,-0.9,-1.18
-1.4799e-01,-0.84,-0.66
-1.4760e-01,-0.9,-1.18
-1.4722e-01,-0.88,-0.64
-1.4683e-01,-0.86,-1.2
-1.4645e-01,-1,-0.66
-1.4607e-01,-0.98,-1.22
-1.4568e-01,-0.84,-0.68
-1.4530e-01,-0.9,-1.18
-1.4491e-01,-1,-0.66
-1.4453e-01,-0.82,-1.22
-1.4415e-01,-1,-0.66
-1.4376e-01,-0.86,-1.16
-1.4338e-01,-1.02,-0.68
-1.4299e-01,-0.92,-1.16
-1.4261e-01,-0.82,-0.68
-1.4223e-01,-0.92,-1.18
-1.4184e-01,-0.86,-0.68
-1.4146e-01,-0.86,-1.14
-1.4107e-01,-0.88,-0.68
-1.4069e-01,-0.8,-1.18
-1.4031e-01,-0.92,-0.64
-1.3992e-01,-0.9,-1.14
-1.3954e-01,-0.94,-0.7
-1.3915e-01,-0.94,-1.16
-1.3877e-01,-0.94,-0.56
-1.3839e-01,-0.9,-1.18
-1.3800e-01,-0.72,-0.64
-1.3762e-01,-0.88,-1.14
-1.3723e-01,-0.82,-0.68
-1.3685e-01,-0.92,-1.18
-1.3647e-01,-0.96,-0.66
-1.3608e-01,-0.86,-1.14
-1.3570e-01,-0.82,-0.74
-1.3531e-01,-0.96,-1.2
-1.3493e-01,-0.96,-0.68
-1.3454e-01,-0.8,-1.18
-1.3416e-01,-0.9,-0.66
-1.3378e-01,-0.82,-1.14
-1.3339e-01,-0.9,-0.68
-1.3301e-01,-0.98,-1.14
-1.3262e-01,-0.8,-0.64
-1.3224e-01,-0.96,-1.22
-1.3186e-01,-0.98,-0.64
-1.3147e-01,-1.1,-1.12
-1.3109e-01,-0.94,-0.7
-1.3070e-01,-0.9,-1.16
-1.3032e-01,-0.98,-0.64
-1.2994e-01,-0.82,-1.16
-1.2955e-01,-0.88,-0.68
-1.2917e-01,-0.98,-1.18
-1.2878e-01,-0.96,-0.68
-1.2840e-01,-0.8,-1.2
-1.2802e-01,-1.08,-0.68
-1.2763e-01,-0.82,-1.16
-1.2725e-01,-0.98,-0.68
-1.2686e-01,-0.98,-1.22
-1.2648e-01,-0.9,-0.6
-1.2610e-01,-0.9,-1.22
-1.2571e-01,-0.9,-0.66
-1.2533e-01,-1.06,-1.18
-1.2494e-01,-0.96,-0.68
-1.2456e-01,-0.94,-1.18
-1.2418e-01,-0.82,-0.66
-1.2379e-01,-0.92,-1.18
-1.2341e-01,-0.9,-0.68
-1.2302e-01,-0.96,-1.2
-1.2264e-01,-0.86,-0.66
-1.2226e-01,-0.92,-1.16
-1.2187e-01,-0.84,-0.6
-1.2149e-01,-0.9,-1.14
-1.2110e-01,-1.04,-0.68
-1.2072e-01,-1,-1.14
-1.2034e-01,-0.88,-0.66
-1.1995e-01,-0.96,-1.16
-1.1957e-01,-0.92,-0.62
-1.1918e-01,-0.98,-1.2
-1.1880e-01,-0.86,-0.68
-1.1842e-01,-0.82,-1.18
-1.1803e-01,-0.8,-0.66
-1.1765e-01,-0.88,-1.12
-1.1726e-01,-0.92,-0.64
-1.1688e-01,-0.92,-1.16
-1.1650e-01,-0.84,-0.68
-1.1611e-01,-0.9,-1.16
-1.1573e-01,-0.9,-0.62
-1.1534e-01,-0.98,-1.14
-1.1496e-01,-0.82,-0.7
-1.1458e-01,-0.84,-1.14
-1.1419e-01,-0.92,-0.68
-1.1381e-01,-0.94,-1.14
-1.1342e-01,-0.86,-0.66
-1.1304e-01,-0.94,-1.18
-1.1266e-01,-0.8,-0.6
-1.1227e-01,-0.76,-1.16
-1.1189e-01,-0.9,-0.72
-1.1150e-01,-0.96,-1.14
-1.1112e-01,-0.86,-0.62
-1.1074e-01,-0.84,-1.14
-1.1035e-01,-1,-0.64
-1.0997e-01,-0.88,-1.16
-1.0958e-01,-0.96,-0.66
-1.0920e-01,-0.94,-1.22
-1.0882e-01,-0.86,-0.66
-1.0843e-01,-0.86,-1.18
-1.0805e-01,-0.82,-0.68
-1.0766e-01,-0.88,-1.18
-1.0728e-01,-0.82,-0.66
-1.0690e-01,-0.94,-1.18
-1.0651e-01,-0.92,-0.68
-1.0613e-01,-1,-1.2
-1.0574e-01,-0.98,-0.66
-1.0536e-01,-0.92,-1.14
-1.0498e-01,-0.9,-0.64
-1.0459e-01,-0.88,-1.14
-1.0421e-01,-0.82,-0.66
-1.0382e-01,-0.9,-1.16
-1.0344e-01,-0.92,-0.68
-1.0305e-01,-0.88,-1.18
-1.0267e-01,-0.84,-0.68
-1.0229e-01,-0.78,-1.18
-1.0190e-01,-0.98,-0.62
-1.0152e-01,-0.86,-1.22
-1.0113e-01,-0.88,-0.68
-1.0075e-01,-0.86,-1.16
-1.0037e-01,-0.96,-0.6
-9.9983e-02,-0.88,-1.16
-9.9599e-02,-0.88,-0.68
-9.9215e-02,-0.86,-1.14
-9.8831e-02,-0.86,-0.62
-9.8447e-02,-0.9,-1.16
-9.8063e-02,-0.96,-0.66
-9.7679e-02,-0.88,-1.14
-9.7295e-02,-0.88,-0.66
-9.6911e-02,-0.9,-1.14
-9.6527e-02,-0.86,-0.64
-9.6142e-02,-0.86,-1.16
-9.5758e-02,-1.12,-0.66
-9.5374e-02,-0.94,-1.14
-9.4990e-02,-0.92,-0.64
-9.4606e-02,-0.82,-1.16
-9.4222e-02,-0.86,-0.68
-9.3838e-02,-0.9,-1.18
-9.3454e-02,-0.9,-0.6
-9.3070e-02,-0.84,-1.16
-9.2686e-02,-0.9,-0.62
-9.2302e-02,-0.92,-1.18
-9.1918e-02,-1.04,-0.58
-9.1534e-02,-1.12,-1.18
-9.1150e-02,-0.86,-0.6
-9.0766e-02,-0.96,-1.16
-9.0382e-02,-0.88,-0.68
-8.9998e-02,-0.84,-1.18
-8.9614e-02,-0.86,-0.62
-8.9230e-02,-0.88,-1.14
-8.8846e-02,-0.88,-0.64
-8.8462e-02,-1.02,-1.16
-8.8078e-02,-0.9,-0.7
-8.7694e-02,-0.92,-1.14
-8.7310e-02,-0.94,-0.68
-8.6926e-02,-0.9,-1.16
-8.6542e-02,-0.88,-0.7
-8.6158e-02,-0.92,-1.14
-8.5774e-02,-1,-0.68
-8.5390e-02,-0.88,-1.14
-8.5006e-02,-0.86,-0.68
-8.4622e-02,-0.9,-1.1
-8.4238e-02,-0.96,-0.66
-8.3854e-02,-0.96,-1.2
-8.3470e-02,-0.94,-0.7
-8.3086e-02,-0.88,-1.18
-8.2702e-02,-0.9,-0.62
-8.2318e-02,-1.06,-1.18
-8.1934e-02,-0.96,-0.64
-8.1550e-02,-0.92,-1.14
-8.1166e-02,-0.82,-0.66
-8.0782e-02,-0.82,-1.18
-8.0397e-02,-0.94,-0.62
-8.0013e-02,-0.96,-1.16
-7.9629e-02,-0.94,-0.72
-7.9245e-02,-0.9,-1.18
-7.8861e-02,-0.98,-0.7
-7.8477e-02,-1,-1.18
-7.8093e-02,-0.96,-0.7
-7.7709e-02,-1,-1.22
-7.7325e-02,-0.92,-0.7
-7.6941e-02,-0.94,-1.22
-7.6557e-02,-0.84,-0.7
-7.6173e-02,-0.98,-1.18
-7.5789e-02,-0.96,-0.64
-7.5405e-02,-1.02,-1.18
-7.5021e-02,-0.92,-0.68
-7.4637e-02,-0.9,-1.16
-7.4253e-02,-0.94,-0.62
-7.3869e-02,-1,-1.14
-7.3485e-02,-0.84,-0.66
-7.3101e-02,-0.92,-1.22
-7.2717e-02,-0.9,-0.68
-7.2333e-02,-1,-1.14
-7.1949e-02,-0.9,-0.66
-7.1565e-02,-0.94,-1.16
-7.1181e-02,-0.88,-0.72
-7.0797e-02,-0.98,-1.2
-7.0413e-02,-1.02,-0.58
-7.0029e-02,-0.94,-1.2
-6.9645e-02,-0.94,-0.62
-6.9261e-02,-0.96,-1.2
-6.8877e-02,-0.84,-0.68
-6.8493e-02,-1.02,-1.2
-6.8109e-02,-1.08,-0.7
-6.7725e-02,-1.02,-1.16
-6.7341e-02,-0.84,-0.68
-6.6957e-02,-0.96,-1.16
-6.6573e-02,-0.94,-0.66
-6.6189e-02,-1.06,-1.18
-6.5805e-02,-1,-0.64
-6.5421e-02,-0.82,-1.18
-6.5037e-02,-0.86,-0.66
-6.4652e-02,-1,-1.2
-6.4268e-02,-0.86,-0.66
-6.3884e-02,-0.9,-1.22
-6.3500e-02,-0.86,-0.64
-6.3116e-02,-0.92,-1.16
-6.2732e-02,-0.92,-0.7
-6.2348e-02,-0.96,-1.2
-6.1964e-02,-0.96,-0.62
-6.1580e-02,-0.88,-1.16
-6.1196e-02,-0.9,-0.68
-6.0812e-02,-1,-1.24
-6.0428e-02,-0.98,-0.66
-6.0044e-02,-0.9,-1.18
-5.9660e-02,-0.86,-0.72
-5.9276e-02,-0.92,-1.18
-5.8892e-02,-0.96,-0.66
-5.8508e-02,-0.86,-1.18
-5.8124e-02,-0.92,-0.68
-5.7740e-02,-0.82,-1.14
-5.7356e-02,-0.96,-0.68
-5.6972e-02,-0.92,-1.16
-5.6588e-02,-0.84,-0.64
-5.6204e-02,-0.88,-1.16
-5.5820e-02,-1.06,-0.6
-5.5436e-02,-0.88,-1.24
-5.5052e-02,-0.9,-0.66
-5.4668e-02,-0.9,-1.14
-5.4284e-02,-1.04,-0.64
-5.3900e-02,-1,-1.14
-5.3516e-02,-0.8,-0.66
-5.3132e-02,-0.94,-1.16
-5.2748e-02,-0.96,-0.66
-5.2364e-02,-1,-1.2
-5.1980e-02,-0.88,-0.68
-5.1596e-02,-0.82,-1.16
-5.1212e-02,-0.92,-0.7
-5.0828e-02,-0.96,-1.16
-5.0444e-02,-0.88,-0.68
-5.0060e-02,-0.88,-1.12
-4.9676e-02,-0.94,-0.7
-4.9292e-02,-0.84,-1.16
-4.8907e-02,-0.98,-0.6
-4.8523e-02,-0.88,-1.16
-4.8139e-02,-0.82,-0.64
-4.7755e-02,-0.88,-1.16
-4.7371e-02,-0.84,-0.6
-4.6987e-02,-0.94,-1.2
-4.6603e-02,-0.88,-0.64
-4.6219e-02,-0.96,-1.18
-4.5835e-02,-0.84,-0.66
-4.5451e-02,-0.9,-1.16
-4.5067e-02,-0.9,-0.66
-4.4683e-02,-0.88,-1.18
-4.4299e-02,-0.88,-0.62
-4.3915e-02,-0.9,-1.16
-4.3531e-02,-0.96,-0.7
-4.3147e-02,-0.9,-1.18
-4.2763e-02,-0.94,-0.7
-4.2379e-02,-0.78,-1.16
-4.1995e-02,-0.94,-0.68
-4.1611e-02,-0.9,-1.18
-4.1227e-02,-0.94,-0.66
-4.0843e-02,-1,-1.16
-4.0459e-02,-0.78,-0.66
-4.0075e-02,-0.86,-1.14
-3.9691e-02,-0.92,-0.6
-3.9307e-02,-0.92,-1.2
-3.8923e-02,-0.8,-0.64
-3.8539e-02,-0.94,-1.18
-3.8155e-02,-1.06,-0.64
-3.7771e-02,-0.88,-1.18
-3.7387e-02,-0.96,-0.66
-3.7003e-02,-0.98,-1.18
-3.6619e-02,-0.92,-0.66
-3.6235e-02,-0.94,-1.16
-3.5851e-02,-1.04,-0.7
-3.5467e-02,-0.98,-1.24
-3.5083e-02,-0.96,-0.62
-3.4699e-02,-0.88,-1.16
-3.4315e-02,-0.88,-0.72
-3.3931e-02,-0.8,-1.14
-3.3546e-02,-0.86,-0.64
-3.3162e-02,-1.04,-1.14
-3.2778e-02,-1.04,-0.7
-3.2394e-02,-0.86,-1.2
-3.2010e-02,-0.82,-0.66
-3.1626e-02,-0.92,-1.16
-3.1242e-02,-1.12,-0.62
-3.0858e-02,-0.92,-1.2
-3.0474e-02,-0.84,-0.66
-3.0090e-02,-0.9,-1.18
-2.9706e-02,-1,-0.68
-2.9322e-02,-0.9,-1.2
-2.8938e-02,-1.06,-0.66
-2.8554e-02,-0.9,-1.12
-2.8170e-02,-0.96,-0.7
-2.7786e-02,-0.9,-1.18
-2.7402e-02,-1.06,-0.66
-2.7018e-02,-1.1,-1.2
-2.6634e-02,-0.8,-0.68
-2.6250e-02,-0.84,-1.16
-2.5866e-02,-0.86,-0.66
-2.5482e-02,-0.84,-1.14
-2.5098e-02,-0.98,-0.66
-2.4714e-02,-0.96,-1.18
-2.4330e-02,-0.88,-0.68
-2.3946e-02,-0.98,-1.14
-2.3562e-02,-0.88,-0.7
-2.3178e-02,-0.88,-1.16
-2.2794e-02,-0.9,-0.68
-2.2410e-02,-0.86,-1.16
-2.2026e-02,-0.84,-0.6
-2.1642e-02,-1,-1.2
-2.1258e-02,-0.94,-0.64
-2.0874e-02,-0.88,-1.18
-2.0490e-02,-0.94,-0.68
-2.0106e-02,-0.76,-1.16
-1.9722e-02,-1.04,-0.64
-1.9338e-02,-0.9,-1.22
-1.8954e-02,-0.96,-0.64
-1.8570e-02,-1,-1.16
-1.8186e-02,-0.88,-0.64
-1.7801e-02,-0.92,-1.18
-1.7417e-02,-1,-0.66
-1.7033e-02,-0.92,-1.16
-1.6649e-02,-0.78,-0.68
-1.6265e-02,-0.92,-1.16
-1.5881e-02,-0.96,-0.64
-1.5497e-02,-0.92,-1.18
-1.5113e-02,-0.82,-0.68
-1.4729e-02,-0.82,-1.18
-1.4345e-02,-0.92,-0.66
-1.3961e-02,-0.92,-1.18
-1.3577e-02,-1,-0.66
-1.3193e-02,-0.94,-1.18
-1.2809e-02,-0.98,-0.64
-1.2425e-02,-0.9,-1.24
-1.2041e-02,-0.98,-0.7
-1.1657e-02,-1.02,-1.16
-1.1273e-02,-0.98,-0.66
-1.0889e-02,-0.92,-1.16
-1.0505e-02,-1,-0.7
-1.0121e-02,-0.8,-1.2
-9.7370e-03,-0.8,-0.68
-9.3529e-03,-0.98,-1.16
-8.9689e-03,-0.92,-0.7
-8.5849e-03,-0.98,-1.16
-8.2009e-03,-0.94,-0.62
-7.8168e-03,-0.94,-1.2
-7.4328e-03,-0.88,-0.68
-7.0488e-03,-0.94,-1.16
-6.6648e-03,-0.88,-0.7
-6.2807e-03,-0.78,-1.12
-5.8967e-03,-0.84,-0.68
-5.5127e-03,-0.96,-1.16
-5.1287e-03,-1,-0.6
-4.7447e-03,-0.86,-1.16
-4.3606e-03,-0.94,-0.7
-3.9766e-03,-0.86,-1.16
-3.5926e-03,-0.92,-0.68
-3.2086e-03,-0.9,-1.18
-2.8245e-03,-0.92,-0.7
-2.4405e-03,-0.78,-1.22
-2.0565e-03,-0.96,-0.72
-1.6725e-03,-0.92,-1.12
-1.2884e-03,-0.9,-0.62
-9.0440e-04,-0.98,-1.16
-5.2038e-04,-0.82,-0.7
-1.3636e-04,-1.3,-2.92
2.4767e-04,-0.54,2.16
6.3169e-04,-0.76,-1.02
1.0157e-03,-0.76,-0.46
1.3997e-03,-0.72,-1.08
1.7838e-03,-0.82,-0.62
2.1678e-03,-0.84,-1.14
2.5518e-03,-0.76,-0.64
2.9358e-03,-0.96,-1.14
3.3199e-03,-1,-0.62
3.7039e-03,-1.02,-1.16
4.0879e-03,-1.02,-0.7
4.4719e-03,-1.06,-1.18
4.8560e-03,-1,-0.68
5.2400e-03,-0.92,-1.24
5.6240e-03,-0.94,-0.7
6.0080e-03,-0.9,-1.24
6.3921e-03,-1.06,-0.68
6.7761e-03,-1,-1.18
7.1601e-03,-0.86,-0.68
7.5441e-03,-0.96,-1.2
7.9282e-03,-0.94,-0.62
8.3122e-03,-0.96,-1.16
8.6962e-03,-0.88,-0.62
9.0802e-03,-0.86,-1.14
9.4643e-03,-0.96,-0.64
9.8483e-03,-0.84,-1.14
1.0232e-02,-0.9,-0.62
1.0616e-02,-1.06,-1.16
1.1000e-02,-0.86,-0.62
1.1384e-02,-0.84,-1.14
1.1768e-02,-1.02,-0.62
1.2152e-02,-0.84,-1.16
1.2536e-02,-0.94,-0.66
1.2920e-02,-0.94,-1.14
1.3305e-02,-1,-0.58
1.3689e-02,-1,-1.18
1.4073e-02,-0.9,-0.64
1.4457e-02,-1.04,-1.16
1.4841e-02,-0.82,-0.66
1.5225e-02,-0.9,-1.16
1.5609e-02,-1,-0.64
1.5993e-02,-0.82,-1.14
1.6377e-02,-0.92,-0.64
1.6761e-02,-0.94,-1.18
1.7145e-02,-0.8,-0.64
1.7529e-02,-0.8,-1.14
1.7913e-02,-0.84,-0.68
1.8297e-02,-0.88,-1.14
1.8681e-02,-0.78,-0.64
1.9065e-02,-0.9,-1.16
1.9449e-02,-0.94,-0.68
1.9833e-02,-0.9,-1.1
2.0217e-02,-0.98,-0.62
2.0601e-02,-0.78,-1.16
2.0985e-02,-0.8,-0.6
2.1369e-02,-0.92,-1.14
2.1753e-02,-0.82,-0.62
2.2137e-02,-0.92,-1.18
2.2521e-02,-1.02,-0.68
2.2905e-02,-0.82,-1.14
2.3289e-02,-0.92,-0.68
2.3673e-02,-0.86,-1.14
2.4057e-02,-0.96,-0.68
2.4441e-02,-0.88,-1.14
2.4825e-02,-0.9,-0.62
2.5209e-02,-0.92,-1.16
2.5593e-02,-0.82,-0.66
2.5977e-02,-0.94,-1.14
2.6361e-02,-1.02,-0.62
2.6745e-02,-0.86,-1.14
2.7129e-02,-0.86,-0.62
2.7513e-02,-1.04,-1.2
2.7897e-02,-1.04,-0.66
2.8281e-02,-0.94,-1.14
2.8665e-02,-0.8,-0.7
2.9050e-02,-0.84,-1.12
2.9434e-02,-0.9,-0.58
2.9818e-02,-0.92,-1.14
3.0202e-02,-0.84,-0.64
3.0586e-02,-1,-1.14
3.0970e-02,-0.9,-0.66
3.1354e-02,-0.96,-1.22
3.1738e-02,-1,-0.6
3.2122e-02,-0.92,-1.18
3.2506e-02,-0.94,-0.66
3.2890e-02,-0.9,-1.14
3.3274e-02,-1.06,-0.66
3.3658e-02,-0.92,-1.18
3.4042e-02,-0.88,-0.66
3.4426e-02,-0.98,-1.14
3.4810e-02,-0.88,-0.54
3.5194e-02,-0.84,-1.18
3.5578e-02,-0.94,-0.68
3.5962e-02,-0.94,-1.14
3.6346e-02,-0.88,-0.64
3.6730e-02,-0.84,-1.14
3.7114e-02,-0.86,-0.58
3.7498e-02,-1.04,-1.16
3.7882e-02,-1,-0.66
3.8266e-02,-0.88,-1.2
3.8650e-02,-0.76,-0.68
3.9034e-02,-0.88,-1.18
3.9418e-02,-1.02,-0.64
3.9802e-02,-0.94,-1.1
4.0186e-02,-0.86,-0.7
4.0570e-02,-0.92,-1.12
4.0954e-02,-1,-0.66
4.1338e-02,-1.04,-1.16
4.1722e-02,-0.9,-0.64
4.2106e-02,-0.86,-1.12
4.2490e-02,-0.78,-0.62
4.2874e-02,-0.76,-1.14
4.3258e-02,-0.9,-0.6
4.3642e-02,-0.94,-1.1
4.4026e-02,-0.86,-0.68
4.4410e-02,-0.76,-1.14
4.4795e-02,-0.88,-0.54
4.5179e-02,-0.96,-1.14
4.5563e-02,-0.9,-0.62
4.5947e-02,-0.86,-1.1
4.6331e-02,-1,-0.66
4.6715e-02,-0.84,-1.18
4.7099e-02,-0.86,-0.68
4.7483e-02,-1,-1.18
4.7867e-02,-1.02,-0.68
4.8251e-02,-0.8,-1.16
4.8635e-02,-0.92,-0.66
4.9019e-02,-0.98,-1.14
4.9403e-02,-0.9,-0.56
4.9787e-02,-1.06,-1.12
5.0171e-02,-0.98,-0.66
5.0555e-02,-0.92,-1.16
5.0939e-02,-0.84,-0.66
5.1323e-02,-0.9,-1.12
5.1707e-02,-0.94,-0.62
5.2091e-02,-0.84,-1.14
5.2475e-02,-0.86,-0.66
5.2859e-02,-0.86,-1.08
5.3243e-02,-0.9,-0.68
5.3627e-02,-0.96,-1.18
5.4011e-02,-0.9,-0.66
5.4395e-02,-0.86,-1.12
5.4779e-02,-0.92,-0.66
5.5163e-02,-0.98,-1.14
5.5547e-02,-1.02,-0.68
5.5931e-02,-0.96,-1.12
5.6315e-02,-0.88,-0.62
5.6699e-02,-0.94,-1.12
5.7083e-02,-1.02,-0.66
5.7467e-02,-0.92,-1.16
5.7851e-02,-0.92,-0.62
5.8235e-02,-0.9,-1.22
5.8619e-02,-0.88,-0.66
5.9003e-02,-0.86,-1.16
5.9387e-02,-0.86,-0.64
5.9771e-02,-0.88,-1.16
6.0156e-02,-0.98,-0.62
6.0540e-02,-0.78,-1.14
6.0924e-02,-1.02,-0.56
6.1308e-02,-0.94,-1.16
6.1692e-02,-0.88,-0.64
6.2076e-02,-0.8,-1.12
6.2460e-02,-0.88,-0.68
6.2844e-02,-0.94,-1.14
6.3228e-02,-0.9,-0.64
6.3612e-02,-0.84,-1.12
6.3996e-02,-0.94,-0.68
6.4380e-02,-0.8,-1.18
6.4764e-02,-0.92,-0.7
6.5148e-02,-0.84,-1.16
6.5532e-02,-0.9,-0.64
6.5916e-02,-0.84,-1.16
6.6300e-02,-0.86,-0.6
6.6684e-02,-0.9,-1.14
6.7068e-02,-0.82,-0.6
6.7452e-02,-0.84,-1.14
6.7836e-02,-0.8,-0.62
6.8220e-02,-0.98,-1.22
6.8604e-02,-0.84,-0.64
6.8988e-02,-0.92,-1.1
6.9372e-02,-0.94,-0.68
6.9756e-02,-0.92,-1.18
7.0140e-02,-0.88,-0.64
7.0524e-02,-0.84,-1.14
7.0908e-02,-0.92,-0.66
7.1292e-02,-0.98,-1.14
7.1676e-02,-0.78,-0.64
7.2060e-02,-0.74,-1.16
7.2444e-02,-0.98,-0.7
7.2828e-02,-0.76,-1.16
7.3212e-02,-0.96,-0.68
7.3596e-02,-0.86,-1.18
7.3980e-02,-0.9,-0.64
7.4364e-02,-1,-1.24
7.4748e-02,-0.94,-0.64
7.5132e-02,-0.98,-1.12
7.5516e-02,-0.86,-0.62
7.5901e-02,-0.86,-1.14
7.6285e-02,-0.84,-0.68
7.6669e-02,-0.9,-1.16
7.7053e-02,-1,-0.62
7.7437e-02,-0.92,-1.14
7.7821e-02,-0.84,-0.64
7.8205e-02,-0.92,-1.14
7.8589e-02,-0.92,-0.64
7.8973e-02,-1.02,-1.16
7.9357e-02,-0.94,-0.66
7.9741e-02,-0.88,-1.18
8.0125e-02,-0.98,-0.6
8.0509e-02,-0.86,-1.14
8.0893e-02,-0.94,-0.68
8.1277e-02,-0.84,-1.14
8.1661e-02,-0.92,-0.62
8.2045e-02,-0.92,-1.14
8.2429e-02,-0.9,-0.64
8.2813e-02,-0.94,-1.22
8.3197e-02,-0.82,-0.62
8.3581e-02,-0.82,-1.14
8.3965e-02,-0.96,-0.64
8.4349e-02,-0.88,-1.16
8.4733e-02,-0.92,-0.66
8.5117e-02,-0.78,-1.1
8.5501e-02,-0.92,-0.6
8.5885e-02,-0.94,-1.14
8.6269e-02,-0.94,-0.66
8.6653e-02,-1.02,-1.2
8.7037e-02,-0.86,-0.58
8.7421e-02,-0.94,-1.14
8.7805e-02,-0.84,-0.64
8.8189e-02,-0.94,-1.16
8.8573e-02,-0.88,-0.66
8.8957e-02,-1,-1.1
8.9341e-02,-0.84,-0.66
8.9725e-02,-0.92,-1.18
9.0109e-02,-0.9,-0.66
9.0493e-02,-0.88,-1.1
9.0877e-02,-0.96,-0.66
9.1261e-02,-0.88,-1.16
9.1646e-02,-0.72,-0.66
9.2030e-02,-0.84,-1.12
9.2414e-02,-0.96,-0.6
9.2798e-02,-0.88,-1.14
9.3182e-02,-0.88,-0.58
9.3566e-02,-1.02,-1.14
9.3950e-02,-0.8,-0.66
9.4334e-02,-0.98,-1.18
9.4718e-02,-0.92,-0.66
9.5102e-02,-0.88,-1.16
9.5486e-02,-0.88,-0.64
9.5870e-02,-0.86,-1.14
9.6254e-02,-0.88,-0.66
9.6638e-02,-0.9,-1.16
9.7022e-02,-0.84,-0.64
9.7406e-02,-0.7,-1.16
9.7790e-02,-0.84,-0.62
9.8174e-02,-0.9,-1.18
9.8558e-02,-1.02,-0.66
9.8942e-02,-0.9,-1.22
9.9326e-02,-0.88,-0.64
9.9710e-02,-0.78,-1.18
1.0009e-01,-0.8,-0.66
1.0048e-01,-0.94,-1.14
1.0086e-01,-0.9,-0.64
1.0125e-01,-0.9,-1.12
1.0163e-01,-0.9,-0.58
1.0201e-01,-0.88,-1.1
1.0240e-01,-0.94,-0.66
1.0278e-01,-0.94,-1.12
1.0317e-01,-0.82,-0.64
1.0355e-01,-0.84,-1.16
1.0393e-01,-0.9,-0.6
1.0432e-01,-0.96,-1.22
1.0470e-01,-0.9,-0.66
1.0509e-01,-0.86,-1.12
1.0547e-01,-0.78,-0.62
1.0585e-01,-0.86,-1.14
1.0624e-01,-0.94,-0.64
1.0662e-01,-0.96,-1.12
1.0701e-01,-0.84,-0.7
1.0739e-01,-0.94,-1.18
1.0777e-01,-0.78,-0.58
1.0816e-01,-0.9,-1.18
1.0854e-01,-0.92,-0.66
1.0893e-01,-0.82,-1.12
1.0931e-01,-0.88,-0.68
1.0969e-01,-0.96,-1.12
1.1008e-01,-1.04,-0.66
1.1046e-01,-0.86,-1.08
1.1085e-01,-0.82,-0.56
1.1123e-01,-0.86,-1.12
1.1161e-01,-0.8,-0.68
1.1200e-01,-0.98,-1.12
1.1238e-01,-0.94,-0.64
1.1277e-01,-0.84,-1.16
1.1315e-01,-0.8,-0.6
1.1353e-01,-0.96,-1.16
1.1392e-01,-0.92,-0.54
1.1430e-01,-0.98,-1.14
1.1469e-01,-0.98,-0.64
1.1507e-01,-0.96,-1.14
1.1546e-01,-0.96,-0.6
1.1584e-01,-0.84,-1.12
1.1622e-01,-0.98,-0.66
1.1661e-01,-0.9,-1.12
1.1699e-01,-0.84,-0.66
1.1738e-01,-0.86,-1.14
1.1776e-01,-0.88,-0.62
1.1814e-01,-0.94,-1.16
1.1853e-01,-0.96,-0.66
1.1891e-01,-0.78,-1.16
1.1930e-01,-0.84,-0.56
1.1968e-01,-0.92,-1.1
1.2006e-01,-0.84,-0.6
1.2045e-01,-0.88,-1.16
1.2083e-01,-0.82,-0.66
1.2122e-01,-0.72,-1.14
1.2160e-01,-0.9,-0.64
1.2198e-01,-1.02,-1.18
1.2237e-01,-0.86,-0.58
1.2275e-01,-0.9,-1.24
1.2314e-01,-0.94,-0.66
1.2352e-01,-0.88,-1.14
1.2390e-01,-0.9,-0.66
1.2429e-01,-0.98,-1.12
1.2467e-01,-0.88,-0.6
1.2506e-01,-0.78,-1.22
1.2544e-01,-0.94,-0.6
1.2582e-01,-0.86,-1.12
1.2621e-01,-0.92,-0.62
1.2659e-01,-0.9,-1.18
1.2698e-01,-0.8,-0.64
1.2736e-01,-0.96,-1.16
1.2774e-01,-0.84,-0.68
1.2813e-01,-0.86,-1.12
1.2851e-01,-0.76,-0.6
1.2890e-01,-0.92,-1.12
1.2928e-01,-0.88,-0.64
1.2966e-01,-0.96,-1.14
1.3005e-01,-0.94,-0.64
1.3043e-01,-0.9,-1.12
1.3082e-01,-0.88,-0.64
1.3120e-01,-0.9,-1.14
1.3158e-01,-1,-0.64
1.3197e-01,-0.9,-1.16
1.3235e-01,-0.88,-0.68
1.3274e-01,-0.88,-1.16
1.3312e-01,-0.8,-0.66
1.3350e-01,-1,-1.14
1.3389e-01,-0.88,-0.68
1.3427e-01,-0.96,-1.14
1.3466e-01,-0.92,-0.58
1.3504e-01,-0.88,-1.14
1.3542e-01,-0.88,-0.66
1.3581e-01,-0.9,-1.14
1.3619e-01,-0.92,-0.64
1.3658e-01,-0.86,-1.12
1.3696e-01,-0.86,-0.58
1.3734e-01,-0.96,-1.16
1.3773e-01,-0.94,-0.6
1.3811e-01,-0.92,-1.14
1.3850e-01,-0.8,-0.66
1.3888e-01,-0.68,-1.14
1.3926e-01,-0.96,-0.62
1.3965e-01,-0.8,-1.16
1.4003e-01,-1.02,-0.62
1.4042e-01,-1.02,-1.14
1.4080e-01,-0.86,-0.62
1.4118e-01,-0.84,-1.14
1.4157e-01,-0.8,-0.62
1.4195e-01,-0.9,-1.12
1.4234e-01,-0.94,-0.64
1.4272e-01,-0.92,-1.18
1.4310e-01,-0.82,-0.62
1.4349e-01,-0.86,-1.12
1.4387e-01,-0.9,-0.66
1.4426e-01,-0.82,-1.18
1.4464e-01,-0.82,-0.66
1.4502e-01,-0.88,-1.16
1.4541e-01,-0.96,-0.68
1.4579e-01,-0.82,-1.14
1.4618e-01,-0.92,-0.64
1.4656e-01,-0.8,-1.16
1.4695e-01,-0.84,-0.64
1.4733e-01,-0.92,-1.12
1.4771e-01,-0.92,-0.6
1.4810e-01,-0.82,-1.18
1.4848e-01,-0.8,-0.64
1.4887e-01,-0.94,-1.14
1.4925e-01,-1,-0.68
1.4963e-01,-0.9,-1.18
1.5002e-01,-0.92,-0.64
1.5040e-01,-0.92,-1.16
1.5079e-01,-0.82,-0.62
1.5117e-01,-0.92,-1.16
1.5155e-01,-0.96,-0.62
1.5194e-01,-0.84,-1.16
1.5232e-01,-0.76,-0.62
1.5271e-01,-0.88,-1.14
1.5309e-01,-0.92,-0.64
1.5347e-01,-0.94,-1.16
1.5386e-01,-0.9,-0.62
1.5424e-01,-0.84,-1.14
1.5463e-01,-0.88,-0.66
1.5501e-01,-0.96,-1.12
1.5539e-01,-0.96,-0.66
1.5578e-01,-1.14,-1.2
1.5616e-01,-0.9,-0.66
1.5655e-01,-0.9,-1.16
1.5693e-01,-0.92,-0.68
1.5731e-01,-0.9,-1.16
1.5770e-01,-0.94,-0.64
1.5808e-01,-0.9,-1.2
1.5847e-01,-0.84,-0.66
1.5885e-01,-0.92,-1.14
1.5923e-01,-0.96,-0.66
1.5962e-01,-0.94,-1.2
1.6000e-01,-0.98,-0.66
1.6039e-01,-0.8,-1.18
1.6077e-01,-0.84,-0.64
1.6115e-01,-0.88,-1.14
1.6154e-01,-0.94,-0.64
1.6192e-01,-0.98,-1.12
1.6231e-01,-0.82,-0.64
1.6269e-01,-0.86,-1.22
1.6307e-01,-1,-0.62
1.6346e-01,-1.02,-1.18
1.6384e-01,-0.88,-0.68
1.6423e-01,-0.82,-1.12
1.6461e-01,-0.84,-0.64
1.6499e-01,-0.94,-1.18
1.6538e-01,-1.02,-0.62
1.6576e-01,-0.86,-1.12
1.6615e-01,-0.92,-0.64
1.6653e-01,-0.86,-1.18
1.6691e-01,-0.84,-0.66
1.6730e-01,-0.98,-1.14
1.6768e-01,-0.9,-0.66
1.6807e-01,-0.86,-1.12
1.6845e-01,-0.86,-0.66
1.6883e-01,-1.02,-1.16
1.6922e-01,-0.92,-0.66
1.6960e-01,-0.92,-1.18
1.6999e-01,-0.8,-0.64
1.7037e-01,-0.98,-1.16
1.7075e-01,-0.92,-0.6
1.7114e-01,-0.86,-1.14
1.7152e-01,-0.82,-0.64
1.7191e-01,-0.92,-1.2
1.7229e-01,-0.9,-0.54
1.7267e-01,-0.94,-1.16
1.7306e-01,-0.92,-0.58
1.7344e-01,-1.02,-1.16
1.7383e-01,-0.84,-0.62
1.7421e-01,-0.92,-1.14
1.7459e-01,-0.98,-0.64
1.7498e-01,-0.86,-1.16
1.7536e-01,-0.92,-0.66
1.7575e-01,-0.94,-1.14
1.7613e-01,-0.98,-0.64
1.7651e-01,-0.82,-1.14
1.7690e-01,-0.86,-0.64
1.7728e-01,-0.9,-1.16
1.7767e-01,-0.82,-0.68
1.7805e-01,-0.82,-1.16
1.7844e-01,-0.98,-0.62
1.7882e-01,-0.78,-1.14
1.7920e-01,-0.92,-0.66
1.7959e-01,-0.86,-1.14
1.7997e-01,-0.8,-0.66
1.8036e-01,-0.96,-1.14
1.8074e-01,-1.06,-0.62
1.8112e-01,-0.92,-1.18
1.8151e-01,-0.88,-0.62
1.8189e-01,-0.88,-1.14
1.8228e-01,-0.88,-0.68
1.8266e-01,-0.96,-1.16
1.8304e-01,-0.96,-0.64
1.8343e-01,-0.86,-1.1
1.8381e-01,-0.84,-0.68
1.8420e-01,-0.88,-1.16
1.8458e-01,-0.98,-0.66
1.8496e-01,-0.94,-1.1
1.8535e-01,-0.9,-0.62
1.8573e-01,-0.92,-1.22
1.8612e-01,-0.86,-0.64
1.8650e-01,-0.92,-1.12
1.8688e-01,-0.84,-0.6
1.8727e-01,-0.74,-1.1
1.8765e-01,-0.74,-0.66
1.8804e-01,-0.92,-1.14
1.8842e-01,-0.94,-0.66
1.8880e-01,-0.88,-1.18
1.8919e-01,-0.78,-0.62
1.8957e-01,-0.82,-1.16
1.8996e-01,-0.98,-0.68
1.9034e-01,-0.92,-1.12
1.9072e-01,-0.88,-0.64
1.9111e-01,-0.86,-1.16
1.9149e-01,-0.88,-0.66
1.9188e-01,-0.9,-1.24
1.9226e-01,-1,-0.62
1.9264e-01,-1,-1.16
1.9303e-01,-0.92,-0.62
1.9341e-01,-0.92,-1.14
1.9380e-01,-0.92,-0.62
1.9418e-01,-0.9,-1.12
1.9456e-01,-0.82,-0.64
1.9495e-01,-0.96,-1.14
1.9533e-01,-0.92,-0.62
1.9572e-01,-0.88,-1.12
1.9610e-01,-0.82,-0.66
1.9648e-01,-0.76,-1.1
1.9687e-01,-0.88,-0.54
1.9725e-01,-0.86,-1.22
1.9764e-01,-0.86,-0.62
1.9802e-01,-0.9,-1.14
1.9840e-01,-0.94,-0.66
1.9879e-01,-0.94,-1.12
1.9917e-01,-0.92,-0.64
1.9956e-01,-0.88,-1.12
1.9994e-01,-0.94,-0.68
2.0032e-01,-0.9,-1.12
2.0071e-01,-0.96,-0.66
2.0109e-01,-0.98,-1.14
2.0148e-01,-0.72,-0.64
2.0186e-01,-0.88,-1.18
2.0224e-01,-0.88,-0.6
2.0263e-01,-0.92,-1.08
2.0301e-01,-0.9,-0.64
2.0340e-01,-0.8,-1.1
2.0378e-01,-0.76,-0.66
2.0416e-01,-0.92,-1.22
2.0455e-01,-0.92,-0.64
2.0493e-01,-0.8,-1.14
2.0532e-01,-0.94,-0.66
2.0570e-01,-0.84,-1.14
2.0608e-01,-0.98,-0.58
2.0647e-01,-0.84,-1.12
2.0685e-01,-0.92,-0.62
2.0724e-01,-0.94,-1.22
2.0762e-01,-0.9,-0.64
2.0800e-01,-0.96,-1.12
2.0839e-01,-0.88,-0.64
2.0877e-01,-0.98,-1.16
2.0916e-01,-0.82,-0.66
2.0954e-01,-0.92,-1.16
2.0993e-01,-0.88,-0.62
2.1031e-01,-0.96,-1.1
2.1069e-01,-1.02,-0.58
2.1108e-01,-0.8,-1.14
2.1146e-01,-0.92,-0.66
2.1185e-01,-0.94,-1.12
2.1223e-01,-0.94,-0.64
2.1261e-01,-0.9,-1.18
2.1300e-01,-0.9,-0.6
2.1338e-01,-0.84,-1.14
2.1377e-01,-0.94,-0.66
2.1415e-01,-0.92,-1.18
2.1453e-01,-0.96,-0.62
2.1492e-01,-0.96,-1.16
2.1530e-01,-0.88,-0.6
2.1569e-01,-0.86,-1.16
2.1607e-01,-0.92,-0.64
2.1645e-01,-0.9,-1.18
2.1684e-01,-0.72,-0.68
2.1722e-01,-0.94,-1.16
2.1761e-01,-0.82,-0.66
2.1799e-01,-0.98,-1.14
2.1837e-01,-0.9,-0.66
2.1876e-01,-1,-1.12
2.1914e-01,-0.88,-0.64
2.1953e-01,-0.92,-1.1
2.1991e-01,-0.86,-0.62
2.2029e-01,-0.82,-1.16
2.2068e-01,-0.92,-0.66
2.2106e-01,-0.86,-1.16
2.2145e-01,-0.8,-0.66
2.2183e-01,-1.02,-1.16
2.2221e-01,-0.82,-0.66
2.2260e-01,-0.82,-1.14
2.2298e-01,-0.88,-0.64
2.2337e-01,-0.92,-1.12
2.2375e-01,-0.88,-0.62
2.2413e-01,-0.92,-1.14
2.2452e-01,-1,-0.66
2.2490e-01,-0.8,-1.18
2.2529e-01,-0.92,-0.64
2.2567e-01,-0.86,-1.16
2.2605e-01,-0.9,-0.64
2.2644e-01,-0.76,-1.14
2.2682e-01,-0.92,-0.62
2.2721e-01,-0.78,-1.12
2.2759e-01,-0.84,-0.62
2.2797e-01,-0.86,-1.14
2.2836e-01,-0.8,-0.64
2.2874e-01,-0.86,-1.16
2.2913e-01,-0.92,-0.6
2.2951e-01,-0.98,-1.14
2.2989e-01,-0.94,-0.66
2.3028e-01,-0.84,-1.18
2.3066e-01,-0.92,-0.66
2.3105e-01,-0.88,-1.18
2.3143e-01,-0.94,-0.66
2.3181e-01,-0.86,-1.14
2.3220e-01,-1.04,-0.64
2.3258e-01,-0.92,-1.14
2.3297e-01,-0.84,-0.66
2.3335e-01,-0.84,-1.16
2.3373e-01,-0.92,-0.6
2.3412e-01,-0.98,-1.12
2.3450e-01,-0.74,-0.68
2.3489e-01,-0.9,-1.08
2.3527e-01,-0.86,-0.62
2.3565e-01,-0.86,-1.14
2.3604e-01,-0.94,-0.62
2.3642e-01,-0.96,-1.16
2.3681e-01,-0.82,-0.62
2.3719e-01,-0.92,-1.14
2.3757e-01,-0.92,-0.6
2.3796e-01,-0.9,-1.1
2.3834e-01,-0.8,-0.6
2.3873e-01,-0.94,-1.18
2.3911e-01,-0.86,-0.66
2.3949e-01,-0.94,-1.16
2.3988e-01,-0.94,-0.66
2.4026e-01,-0.88,-1.16
2.4065e-01,-0.92,-0.66
2.4103e-01,-0.9,-1.16
2.4142e-01,-0.94,-0.7
2.4180e-01,-1.02,-1.16
2.4218e-01,-0.92,-0.62
2.4257e-01,-0.88,-1.14
2.4295e-01,-0.92,-0.62
2.4334e-01,-0.9,-1.22
2.4372e-01,-1.02,-0.64
2.4410e-01,-0.9,-1.18
2.4449e-01,-0.76,-0.66
2.4487e-01,-0.8,-1.12
2.4526e-01,-0.92,-0.64
2.4564e-01,-0.86,-1.14
2.4602e-01,-0.8,-0.66
2.4641e-01,-0.82,-1.16
2.4679e-01,-0.94,-0.62
2.4718e-01,-0.88,-1.18
2.4756e-01,-0.96,-0.64
2.4794e-01,-0.92,-1.18
2.4833e-01,-0.72,-0.62
2.4871e-01,-0.96,-1.2
2.4910e-01,-0.94,-0.66
2.4948e-01,-0.8,-1.14
2.4986e-01,-0.84,-0.62
2.5025e-01,-0.94,-1.1
2.5063e-01,-0.88,-0.66
2.5102e-01,-0.88,-1.1
2.5140e-01,-0.88,-0.64
2.5178e-01,-0.96,-1.16
2.5217e-01,-0.82,-0.62
2.5255e-01,-0.88,-1.14
2.5294e-01,-0.9,-0.6
2.5332e-01,-0.84,-1.14
2.5370e-01,-0.86,-0.64
2.5409e-01,-0.8,-1.12
2.5447e-01,-0.74,-0.62
2.5486e-01,-0.92,-1.14
2.5524e-01,-0.96,-0.64
2.5562e-01,-0.92,-1.14
2.5601e-01,-0.92,-0.64
2.5639e-01,-0.76,-1.16
2.5678e-01,-0.9,-0.66
2.5716e-01,-0.86,-1.2
2.5754e-01,-0.9,-0.62
2.5793e-01,-0.94,-1.18
2.5831e-01,-0.88,-0.56
2.5870e-01,-0.84,-1.12
2.5908e-01,-0.92,-0.64
2.5946e-01,-0.98,-1.16
2.5985e-01,-0.94,-0.66
2.6023e-01,-0.94,-1.1
2.6062e-01,-0.72,-0.64
2.6100e-01,-0.86,-1.14
2.6138e-01,-0.82,-0.62
2.6177e-01,-0.94,-1.12
2.6215e-01,-0.82,-0.58
2.6254e-01,-0.9,-1.12
2.6292e-01,-0.8,-0.66
2.6330e-01,-0.94,-1.16
2.6369e-01,-0.9,-0.6
2.6407e-01,-0.8,-1.16
2.6446e-01,-0.88,-0.66
2.6484e-01,-0.84,-1.18
2.6522e-01,-0.86,-0.68
2.6561e-01,-0.96,-1.18
2.6599e-01,-0.9,-0.66
2.6638e-01,-0.76,-1.12
2.6676e-01,-0.92,-0.64
2.6714e-01,-0.96,-1.12
2.6753e-01,-0.98,-0.58
2.6791e-01,-0.92,-1.18
2.6830e-01,-0.86,-0.64
2.6868e-01,-0.8,-1.1
2.6906e-01,-0.92,-0.66
2.6945e-01,-0.86,-1.18
2.6983e-01,-0.8,-0.62
2.7022e-01,-0.82,-1.18
2.7060e-01,-0.88,-0.62
2.7098e-01,-0.94,-1.14
2.7137e-01,-0.88,-0.68
2.7175e-01,-0.88,-1.12
2.7214e-01,-0.88,-0.64
2.7252e-01,-0.92,-1.16
2.7291e-01,-0.96,-0.68
2.7329e-01,-0.84,-1.14
2.7367e-01,-0.9,-0.6
2.7406e-01,-0.9,-1.14
2.7444e-01,-0.92,-0.64
2.7483e-01,-0.86,-1.16
2.7521e-01,-0.84,-0.64
2.7559e-01,-0.96,-1.12
2.7598e-01,-0.86,-0.64
2.7636e-01,-0.9,-1.1
2.7675e-01,-0.9,-0.66
2.7713e-01,-0.9,-1.16
2.7751e-01,-0.9,-0.64
2.7790e-01,-0.78,-1.12
2.7828e-01,-0.74,-0.62
2.7867e-01,-0.92,-1.12
2.7905e-01,-0.96,-0.6
2.7943e-01,-0.98,-1.14
2.7982e-01,-0.88,-0.58
2.8020e-01,-0.86,-1.16
2.8059e-01,-0.94,-0.66
2.8097e-01,-0.78,-1.14
2.8135e-01,-0.8,-0.64
2.8174e-01,-0.92,-1.16
2.8212e-01,-0.84,-0.64
2.8251e-01,-1,-1.12
2.8289e-01,-0.98,-0.62
2.8327e-01,-0.86,-1.14
2.8366e-01,-0.88,-0.6
2.8404e-01,-0.82,-1.2
2.8443e-01,-0.96,-0.66
2.8481e-01,-0.88,-1.14
2.8519e-01,-0.94,-0.64
2.8558e-01,-0.92,-1.1
2.8596e-01,-0.86,-0.64
2.8635e-01,-0.84,-1.12
2.8673e-01,-1,-0.62
2.8711e-01,-0.88,-1.18
2.8750e-01,-0.84,-0.64
2.8788e-01,-0.9,-1.14
2.8827e-01,-0.78,-0.6
2.8865e-01,-0.98,-1.16
2.8903e-01,-0.84,-0.66
2.8942e-01,-0.9,-1.16
2.8980e-01,-0.88,-0.66
2.9019e-01,-0.92,-1.18
2.9057e-01,-1.04,-0.62
2.9095e-01,-1.06,-1.16
2.9134e-01,-0.86,-0.66
2.9172e-01,-0.84,-1.12
2.9211e-01,-0.96,-0.66
2.9249e-01,-0.82,-1.16
2.9287e-01,-0.9,-0.58
2.9326e-01,-0.88,-1.14
2.9364e-01,-0.9,-0.66
2.9403e-01,-0.92,-1.14
2.9441e-01,-0.74,-0.64
2.9479e-01,-0.94,-1.14
2.9518e-01,-0.82,-0.62
2.9556e-01,-0.82,-1.14
2.9595e-01,-0.7,-0.66
2.9633e-01,-0.96,-1.12
2.9671e-01,-0.84,-0.62
2.9710e-01,-1,-1.12
2.9748e-01,-0.78,-0.66
2.9787e-01,-0.84,-1.1
2.9825e-01,-0.92,-0.6
2.9863e-01,-1,-1.18
2.9902e-01,-1,-0.62
2.9940e-01,-0.84,-1.18
2.9979e-01,-0.84,-0.66
3.0017e-01,-0.98,-1.12
3.0055e-01,-0.88,-0.64
3.0094e-01,-0.84,-1.16
3.0132e-01,-0.88,-0.64
3.0171e-01,-0.86,-1.14
3.0209e-01,-0.82,-0.64
3.0248e-01,-0.94,-1.16
3.0286e-01,-0.84,-0.66
3.0324e-01,-0.86,-1.1
3.0363e-01,-0.82,-0.66
3.0401e-01,-0.92,-1.14
3.0440e-01,-0.88,-0.68
3.0478e-01,-0.82,-1.1
3.0516e-01,-0.78,-0.66
3.0555e-01,-1,-1.16
3.0593e-01,-0.9,-0.7
3.0632e-01,-0.88,-1.16
3.0670e-01,-0.94,-0.6
3.0708e-01,-0.8,-1.12
3.0747e-01,-0.92,-0.68
3.0785e-01,-0.88,-1.14
3.0824e-01,-0.88,-0.7
3.0862e-01,-0.84,-1.18
3.0900e-01,-0.8,-0.66
3.0939e-01,-0.92,-1.16
3.0977e-01,-0.98,-0.58
3.1016e-01,-0.82,-1.12
3.1054e-01,-1.06,-0.58
3.1092e-01,-0.9,-1.16
3.1131e-01,-0.78,-0.62
3.1169e-01,-0.92,-1.18
3.1208e-01,-0.92,-0.66
3.1246e-01,-0.82,-1.18
3.1284e-01,-0.94,-0.64
3.1323e-01,-0.88,-1.2
3.1361e-01,-0.86,-0.64
3.1400e-01,-0.86,-1.16
3.1438e-01,-1.06,-0.58
3.1476e-01,-0.86,-1.18
3.1515e-01,-0.86,-0.66
3.1553e-01,-0.76,-1.12
3.1592e-01,-0.92,-0.64
3.1630e-01,-0.98,-1.1
3.1668e-01,-0.92,-0.6
3.1707e-01,-0.86,-1.16
3.1745e-01,-0.92,-0.6
3.1784e-01,-0.94,-1.14
3.1822e-01,-0.94,-0.62
3.1860e-01,-1,-1.18
3.1899e-01,-0.92,-0.64
3.1937e-01,-0.82,-1.12
3.1976e-01,-0.86,-0.62
3.2014e-01,-0.8,-1.1
3.2052e-01,-0.96,-0.64
3.2091e-01,-0.86,-1.14
3.2129e-01,-0.88,-0.66
3.2168e-01,-0.78,-1.16
3.2206e-01,-0.84,-0.6
3.2244e-01,-0.92,-1.12
3.2283e-01,-0.92,-0.68
3.2321e-01,-0.9,-1.14
3.2360e-01,-0.86,-0.66
3.2398e-01,-0.86,-1.18
3.2436e-01,-0.94,-0.66
3.2475e-01,-0.76,-1.12
3.2513e-01,-0.88,-0.64
3.2552e-01,-0.98,-1.14
3.2590e-01,-1.02,-0.6
3.2628e-01,-0.82,-1.12
3.2667e-01,-0.88,-0.66
3.2705e-01,-0.92,-1.1
3.2744e-01,-0.72,-0.62
3.2782e-01,-0.86,-1.14
3.2820e-01,-0.84,-0.62
3.2859e-01,-0.84,-1.14
3.2897e-01,-0.98,-0.68
3.2936e-01,-1,-1.14
3.2974e-01,-0.96,-0.62
3.3012e-01,-0.96,-1.14
3.3051e-01,-1.02,-0.56
3.3089e-01,-0.86,-1.14
3.3128e-01,-0.98,-0.58
3.3166e-01,-0.96,-1.14
3.3204e-01,-1,-0.66
3.3243e-01,-0.92,-1.14
3.3281e-01,-0.92,-0.62
3.3320e-01,-0.88,-1.12
3.3358e-01,-0.98,-0.64
3.3397e-01,-0.96,-1.14
3.3435e-01,-0.9,-0.64
3.3473e-01,-0.84,-1.18
3.3512e-01,-0.84,-0.6
3.3550e-01,-0.82,-1.12
3.3589e-01,-0.86,-0.66
3.3627e-01,-0.82,-1.14
3.3665e-01,-0.78,-0.68
3.3704e-01,-0.8,-1.1
3.3742e-01,-1,-0.6
3.3781e-01,-0.94,-1.1
3.3819e-01,-0.9,-0.64
3.3857e-01,-0.96,-1.12
3.3896e-01,-0.84,-0.62
3.3934e-01,-0.82,-1.16
3.3973e-01,-1.04,-0.68
3.4011e-01,-0.94,-1.14
3.4049e-01,-0.8,-0.66
3.4088e-01,-1,-1.16
3.4126e-01,-0.98,-0.64
3.4165e-01,-0.9,-1.16
3.4203e-01,-0.86,-0.66
3.4241e-01,-0.86,-1.14
3.4280e-01,-0.84,-0.62
3.4318e-01,-0.82,-1.14
3.4357e-01,-0.94,-0.58
3.4395e-01,-0.82,-1.12
3.4433e-01,-0.88,-0.62
3.4472e-01,-0.82,-1.1
3.4510e-01,-0.78,-0.64
3.4549e-01,-0.9,-1.08
3.4587e-01,-0.92,-0.66
3.4625e-01,-1,-1.14
3.4664e-01,-0.98,-0.68
3.4702e-01,-0.92,-1.14
3.4741e-01,-0.98,-0.66
3.4779e-01,-0.94,-1.16
3.4817e-01,-0.84,-0.64
3.4856e-01,-0.8,-1.16
3.4894e-01,-0.9,-0.64
3.4933e-01,-0.96,-1.22
3.4971e-01,-1.02,-0.56
3.5009e-01,-0.9,-1.14
3.5048e-01,-0.96,-0.64
3.5086e-01,-0.82,-1.12
3.5125e-01,-0.86,-0.66
3.5163e-01,-0.8,-1.12
3.5201e-01,-0.88,-0.66
3.5240e-01,-0.78,-1.1
3.5278e-01,-0.84,-0.64
3.5317e-01,-0.8,-1.1
3.5355e-01,-0.76,-0.64
3.5393e-01,-0.8,-1.14
3.5432e-01,-0.9,-0.62
3.5470e-01,-0.78,-1.16
3.5509e-01,-0.88,-0.6
3.5547e-01,-0.86,-1.16
3.5585e-01,-0.9,-0.62
3.5624e-01,-0.82,-1.18
3.5662e-01,-1,-0.64
3.5701e-01,-0.84,-1.12
3.5739e-01,-0.94,-0.66
3.5777e-01,-0.88,-1.18
3.5816e-01,-0.8,-0.66
3.5854e-01,-0.82,-1.22
3.5893e-01,-0.86,-0.62
3.5931e-01,-0.96,-1.16
3.5969e-01,-0.84,-0.66
3.6008e-01,-0.94,-1.18
3.6046e-01,-0.9,-0.62
3.6085e-01,-0.92,-1.14
3.6123e-01,-0.9,-0.6
3.6161e-01,-1.04,-1.16
3.6200e-01,-0.86,-0.62
3.6238e-01,-0.82,-1.16
3.6277e-01,-0.88,-0.66
3.6315e-01,-0.88,-1.14
3.6353e-01,-1,-0.62
3.6392e-01,-0.86,-1.14
3.6430e-01,-0.9,-0.64
3.6469e-01,-0.82,-1.18
3.6507e-01,-0.84,-0.64
3.6546e-01,-0.9,-1.16
3.6584e-01,-0.86,-0.64
3.6622e-01,-0.94,-1.12
3.6661e-01,-0.86,-0.62
3.6699e-01,-0.94,-1.16
3.6738e-01,-0.88,-0.58
3.6776e-01,-0.86,-1.14
3.6814e-01,-0.84,-0.62
3.6853e-01,-0.92,-1.16
3.6891e-01,-0.94,-0.62
3.6930e-01,-0.88,-1.14
3.6968e-01,-0.88,-0.64
3.7006e-01,-0.84,-1.12
3.7045e-01,-0.94,-0.62
3.7083e-01,-0.86,-1.18
3.7122e-01,-0.92,-0.64
3.7160e-01,-0.96,-1.14
3.7198e-01,-0.9,-0.62
3.7237e-01,-0.96,-1.22
3.7275e-01,-0.92,-0.66
3.7314e-01,-0.92,-1.16
3.7352e-01,-1.04,-0.64
3.7390e-01,-0.9,-1.12
3.7429e-01,-0.82,-0.62
3.7467e-01,-0.82,-1.12
3.7506e-01,-0.92,-0.62
3.7544e-01,-0.94,-1.14
3.7582e-01,-0.72,-0.64
3.7621e-01,-0.9,-1.16
3.7659e-01,-0.9,-0.64
3.7698e-01,-0.92,-1.12
3.7736e-01,-0.96,-0.64
3.7774e-01,-0.88,-1.12
3.7813e-01,-0.78,-0.66
3.7851e-01,-0.94,-1.18
3.7890e-01,-0.94,-0.64
3.7928e-01,-0.94,-1.12
3.7966e-01,-0.94,-0.6
3.8005e-01,-0.82,-1.18
3.8043e-01,-0.78,-0.64
3.8082e-01,-0.88,-1.14
3.8120e-01,-0.9,-0.66
3.8158e-01,-0.9,-1.14
3.8197e-01,-1,-0.66
3.8235e-01,-0.94,-1.18
3.8274e-01,-1,-0.66
3.8312e-01,-0.88,-1.14
3.8350e-01,-1.04,-0.64
3.8389e-01,-0.78,-1.14
3.8427e-01,-0.84,-0.66
3.8466e-01,-0.94,-1.14
3.8504e-01,-0.88,-0.62
3.8542e-01,-0.9,-1.16
3.8581e-01,-0.84,-0.6
3.8619e-01,-0.86,-1.14
3.8658e-01,-0.92,-0.6
3.8696e-01,-0.96,-1.18
3.8734e-01,-1,-0.58
3.8773e-01,-0.86,-1.18
3.8811e-01,-0.9,-0.66
3.8850e-01,-1,-1.16
3.8888e-01,-0.9,-0.66
3.8926e-01,-0.84,-1.16
3.8965e-01,-0.82,-0.64
3.9003e-01,-0.8,-1.22
3.9042e-01,-1,-0.64
3.9080e-01,-1.02,-1.1
3.9118e-01,-0.86,-0.64
3.9157e-01,-0.9,-1.16
3.9195e-01,-0.84,-0.62
3.9234e-01,-0.82,-1.2
3.9272e-01,-0.92,-0.64
3.9310e-01,-0.96,-1.1
3.9349e-01,-0.82,-0.66
3.9387e-01,-0.74,-1.12
3.9426e-01,-0.8,-0.64
3.9464e-01,-0.88,-1.14
3.9502e-01,-0.88,-0.6
3.9541e-01,-0.84,-1.12
3.9579e-01,-0.88,-0.6
3.9618e-01,-0.86,-1.12
3.9656e-01,-0.94,-0.64
3.9695e-01,-0.88,-1.14
3.9733e-01,-0.94,-0.64
3.9771e-01,-0.84,-1.14
3.9810e-01,-0.88,-0.64
3.9848e-01,-0.76,-1.14
3.9887e-01,-0.92,-0.64
3.9925e-01,-0.88,-1.12
3.9963e-01,-0.82,-0.64
4.0002e-01,-0.94,-1.12
4.0040e-01,-0.92,-0.64
4.0079e-01,-0.9,-1.12
4.0117e-01,-0.84,-0.58
4.0155e-01,-0.72,-1.14
4.0194e-01,-1,-0.64
4.0232e-01,-0.92,-1.14
4.0271e-01,-0.88,-0.64
4.0309e-01,-0.82,-1.16
4.0347e-01,-0.84,-0.64
4.0386e-01,-0.92,-1.14
4.0424e-01,-0.9,-0.62
4.0463e-01,-1.02,-1.16
4.0501e-01,-0.96,-0.6
4.0539e-01,-0.9,-1.12
4.0578e-01,-1,-0.64
4.0616e-01,-0.78,-1.14
4.0655e-01,-0.88,-0.66
4.0693e-01,-0.96,-1.1
4.0731e-01,-0.78,-0.68
4.0770e-01,-0.76,-1.14
4.0808e-01,-0.88,-0.66
4.0847e-01,-0.82,-1.16
4.0885e-01,-0.82,-0.66
4.0923e-01,-0.96,-1.2
4.0962e-01,-0.86,-0.66
4.1000e-01,-0.9,-1.14
4.1039e-01,-0.94,-0.64
4.1077e-01,-0.9,-1.14
4.1115e-01,-0.82,-0.66
4.1154e-01,-1.04,-1.16
4.1192e-01,-0.94,-0.64
4.1231e-01,-0.96,-1.12
4.1269e-01,-0.92,-0.68
4.1307e-01,-0.76,-1.08
4.1346e-01,-0.98,-0.64
4.1384e-01,-0.9,-1.12
4.1423e-01,-1.04,-0.68
4.1461e-01,-0.94,-1.16
4.1499e-01,-0.74,-0.66
4.1538e-01,-0.86,-1.18
4.1576e-01,-0.82,-0.62
4.1615e-01,-0.98,-1.16
4.1653e-01,-0.88,-0.66
4.1691e-01,-0.8,-1.24
4.1730e-01,-0.86,-0.64
4.1768e-01,-0.94,-1.14
4.1807e-01,-0.94,-0.68
4.1845e-01,-0.84,-1.14
4.1883e-01,-0.92,-0.6
4.1922e-01,-0.86,-1.12
4.1960e-01,-0.8,-0.6
4.1999e-01,-0.98,-1.1
4.2037e-01,-0.92,-0.6
4.2075e-01,-0.86,-1.16
4.2114e-01,-1.02,-0.64
4.2152e-01,-0.98,-1.18
4.2191e-01,-1.02,-0.68
4.2229e-01,-0.82,-1.14
4.2267e-01,-0.88,-0.64
4.2306e-01,-0.92,-1.12
4.2344e-01,-0.84,-0.62
4.2383e-01,-0.82,-1.12
4.2421e-01,-0.92,-0.66
4.2459e-01,-0.78,-1.14
4.2498e-01,-0.8,-0.64
4.2536e-01,-0.84,-1.12
4.2575e-01,-0.96,-0.62
4.2613e-01,-0.8,-1.14
4.2651e-01,-0.88,-0.62
4.2690e-01,-0.86,-1.12
4.2728e-01,-0.8,-0.62
4.2767e-01,-0.88,-1.16
4.2805e-01,-1.04,-0.66
4.2844e-01,-0.94,-1.12
4.2882e-01,-0.94,-0.6
4.2920e-01,-0.92,-1.14
4.2959e-01,-0.88,-0.62
4.2997e-01,-0.94,-1.08
4.3036e-01,-0.84,-0.66
4.3074e-01,-0.78,-1.14
4.3112e-01,-0.86,-0.66
4.3151e-01,-0.9,-1.12
4.3189e-01,-0.86,-0.62
4.3228e-01,-0.94,-1.14
4.3266e-01,-0.84,-0.62
4.3304e-01,-0.9,-1.14
4.3343e-01,-0.96,-0.66
4.3381e-01,-0.92,-1.14
4.3420e-01,-0.94,-0.64
4.3458e-01,-0.92,-1.12
4.3496e-01,-0.78,-0.66
4.3535e-01,-0.94,-1.18
4.3573e-01,-0.92,-0.66
4.3612e-01,-0.92,-1.1
4.3650e-01,-0.88,-0.66
4.3688e-01,-0.9,-1.18
4.3727e-01,-0.72,-0.62
4.3765e-01,-0.76,-1.12
4.3804e-01,-0.88,-0.62
4.3842e-01,-0.96,-1.18
4.3880e-01,-0.8,-0.6
4.3919e-01,-0.92,-1.14
4.3957e-01,-0.92,-0.66
4.3996e-01,-0.92,-1.16
4.4034e-01,-0.94,-0.6
4.4072e-01,-0.84,-1.1
4.4111e-01,-0.76,-0.66
4.4149e-01,-0.9,-1.14
4.4188e-01,-0.9,-0.64
4.4226e-01,-0.92,-1.14
4.4264e-01,-0.82,-0.66
4.4303e-01,-0.84,-1.18
4.4341e-01,-0.94,-0.64
4.4380e-01,-1,-1.14
4.4418e-01,-0.84,-0.64
4.4456e-01,-0.9,-1.12
4.4495e-01,-0.8,-0.64
4.4533e-01,-0.98,-1.16
4.4572e-01,-1.02,-0.66
4.4610e-01,-1,-1.16
4.4648e-01,-0.78,-0.64
4.4687e-01,-0.94,-1.14
4.4725e-01,-0.92,-0.68
4.4764e-01,-0.86,-1.2
4.4802e-01,-0.94,-0.64
4.4840e-01,-0.92,-1.16
4.4879e-01,-0.88,-0.64
4.4917e-01,-0.94,-1.12
4.4956e-01,-0.88,-0.64
4.4994e-01,-0.72,-1.12
4.5032e-01,-0.94,-0.64
4.5071e-01,-0.84,-1.16
4.5109e-01,-0.82,-0.64
4.5148e-01,-1,-1.14
4.5186e-01,-0.9,-0.66
4.5224e-01,-0.78,-1.14
4.5263e-01,-0.78,-0.68
4.5301e-01,-0.86,-1.14
4.5340e-01,-0.84,-0.58
4.5378e-01,-0.9,-1.12
4.5416e-01,-0.74,-0.66
4.5455e-01,-0.9,-1.14
4.5493e-01,-0.82,-0.62
4.5532e-01,-0.88,-1.16
4.5570e-01,-0.94,-0.66
4.5608e-01,-0.88,-1.12
4.5647e-01,-0.78,-0.68
4.5685e-01,-0.84,-1.22
4.5724e-01,-1,-0.6
4.5762e-01,-1.02,-1.18
4.5800e-01,-0.84,-0.62
4.5839e-01,-0.88,-1.18
4.5877e-01,-0.84,-0.66
4.5916e-01,-0.94,-1.14
4.5954e-01,-1,-0.62
4.5993e-01,-0.84,-1.1
4.6031e-01,-0.76,-0.62
4.6069e-01,-0.9,-1.18
4.6108e-01,-0.82,-0.64
4.6146e-01,-0.88,-1.1
4.6185e-01,-0.96,-0.64
4.6223e-01,-0.82,-1.12
4.6261e-01,-0.84,-0.66
4.6300e-01,-0.82,-1.24
4.6338e-01,-0.92,-0.66
4.6377e-01,-0.84,-1.12
4.6415e-01,-0.9,-0.66
4.6453e-01,-0.8,-1.14
4.6492e-01,-0.7,-0.58
4.6530e-01,-0.9,-1.14
4.6569e-01,-0.94,-0.62
4.6607e-01,-0.94,-1.12
4.6645e-01,-0.82,-0.64
4.6684e-01,-0.8,-1.12
4.6722e-01,-0.94,-0.66
4.6761e-01,-0.9,-1.14
4.6799e-01,-0.84,-0.64
4.6837e-01,-0.84,-1.16
4.6876e-01,-0.9,-0.66
4.6914e-01,-0.78,-1.16
4.6953e-01,-0.94,-0.64
4.6991e-01,-0.98,-1.2
4.7029e-01,-0.86,-0.62
4.7068e-01,-0.74,-1.24
4.7106e-01,-0.94,-0.66
4.7145e-01,-0.94,-1.14
4.7183e-01,-1,-0.7
4.7221e-01,-0.88,-1.18
4.7260e-01,-0.8,-0.64
4.7298e-01,-0.98,-1.18
4.7337e-01,-0.98,-0.68
4.7375e-01,-0.76,-1.16
4.7413e-01,-0.84,-0.68
4.7452e-01,-0.8,-1.18
4.7490e-01,-0.92,-0.62
4.7529e-01,-1,-1.14
4.7567e-01,-0.92,-0.66
4.7605e-01,-0.84,-1.1
4.7644e-01,-0.84,-0.66
4.7682e-01,-1.04,-1.14
4.7721e-01,-0.86,-0.66
4.7759e-01,-0.88,-1.1
4.7797e-01,-0.84,-0.62
4.7836e-01,-0.82,-1.14
4.7874e-01,-0.74,-0.62
4.7913e-01,-0.92,-1.12
4.7951e-01,-0.94,-0.66
4.7989e-01,-0.88,-1.12
4.8028e-01,-0.84,-0.62
4.8066e-01,-0.96,-1.14
4.8105e-01,-0.88,-0.68
4.8143e-01,-0.92,-1.18
4.8181e-01,-0.96,-0.64
4.8220e-01,-0.96,-1.18
4.8258e-01,-0.9,-0.66
4.8297e-01,-0.96,-1.18
4.8335e-01,-0.98,-0.66
4.8373e-01,-0.96,-1.12
4.8412e-01,-0.82,-0.66
4.8450e-01,-0.84,-1.16
4.8489e-01,-0.88,-0.62
4.8527e-01,-0.98,-1.14
4.8565e-01,-0.86,-0.66
4.8604e-01,-0.84,-1.12
4.8642e-01,-0.9,-0.6
4.8681e-01,-0.82,-1.14
4.8719e-01,-0.86,-0.62
4.8757e-01,-0.84,-1.14
4.8796e-01,-0.86,-0.64
4.8834e-01,-0.82,-1.18
4.8873e-01,-0.96,-0.64
4.8911e-01,-0.84,-1.2
4.8949e-01,-0.86,-0.6
4.8988e-01,-0.86,-1.16
4.9026e-01,-0.78,-0.64
4.9065e-01,-0.92,-1.16
4.9103e-01,-0.92,-0.66
4.9142e-01,-0.88,-1.12
4.9180e-01,-0.84,-0.62
4.9218e-01,-0.94,-1.14
4.9257e-01,-0.9,-0.64
4.9295e-01,-1,-1.12
4.9334e-01,-0.92,-0.62
4.9372e-01,-0.68,-1.12
4.9410e-01,-0.92,-0.64
4.9449e-01,-0.92,-1.14
4.9487e-01,-1,-0.6
4.9526e-01,-0.98,-1.16
4.9564e-01,-0.9,-0.62
4.9602e-01,-0.78,-1.18
4.9641e-01,-0.94,-0.6
4.9679e-01,-0.88,-1.18
4.9718e-01,-0.98,-0.66
4.9756e-01,-0.9,-1.2
4.9794e-01,-0.98,-0.62
4.9833e-01,-0.92,-1.12
4.9871e-01,-0.88,-0.66
4.9910e-01,-0.92,-1.14
4.9948e-01,-0.74,-0.64
4.9986e-01,-0.88,-1.12
5.0025e-01,-0.86,-0.62
5.0063e-01,-0.88,-1.12
5.0102e-01,-0.8,-0.68
5.0140e-01,-0.74,-1.14
5.0178e-01,-0.92,-0.62
5.0217e-01,-0.8,-1.14
5.0255e-01,-0.88,-0.64
5.0294e-01,-0.92,-1.14
5.0332e-01,-0.8,-0.64
5.0370e-01,-0.86,-1.12
5.0409e-01,-0.88,-0.66
5.0447e-01,-0.86,-1.18
5.0486e-01,-0.9,-0.66
5.0524e-01,-0.88,-1.14
5.0562e-01,-0.8,-0.66
5.0601e-01,-0.82,-1.12
5.0639e-01,-0.96,-0.66
5.0678e-01,-0.86,-1.16
5.0716e-01,-0.92,-0.68
5.0754e-01,-0.9,-1.16
5.0793e-01,-0.92,-0.64
5.0831e-01,-1.02,-1.12
5.0870e-01,-0.94,-0.62
5.0908e-01,-0.78,-1.18
5.0946e-01,-0.88,-0.66
5.0985e-01,-0.84,-1.14
5.1023e-01,-0.72,-0.56
5.1062e-01,-0.94,-1.1
5.1100e-01,-0.84,-0.62
5.1138e-01,-0.88,-1.12
5.1177e-01,-0.94,-0.68
5.1215e-01,-0.84,-1.1
5.1254e-01,-1,-0.64
5.1292e-01,-0.94,-1.2
5.1330e-01,-0.82,-0.66
5.1369e-01,-0.92,-1.16
5.1407e-01,-0.84,-0.62
5.1446e-01,-1.06,-1.16
5.1484e-01,-0.84,-0.7
5.1522e-01,-0.96,-1.2
5.1561e-01,-0.92,-0.64
5.1599e-01,-0.86,-1.16
5.1638e-01,-0.82,-0.68
5.1676e-01,-0.92,-1.12
5.1714e-01,-0.88,-0.6
5.1753e-01,-0.82,-1.12
5.1791e-01,-0.84,-0.6
5.1830e-01,-0.94,-1.12
5.1868e-01,-0.9,-0.64
5.1906e-01,-0.92,-1.12
5.1945e-01,-0.8,-0.66
5.1983e-01,-0.94,-1.14
5.2022e-01,-1.02,-0.62
5.2060e-01,-0.88,-1.14
5.2098e-01,-0.84,-0.58
5.2137e-01,-0.9,-1.14
5.2175e-01,-0.86,-0.64
5.2214e-01,-0.86,-1.16
5.2252e-01,-0.94,-0.66
5.2291e-01,-0.86,-1.12
5.2329e-01,-0.98,-0.66
5.2367e-01,-0.88,-1.18
5.2406e-01,-0.96,-0.68
5.2444e-01,-0.74,-1.22
5.2483e-01,-0.98,-0.64
5.2521e-01,-0.78,-1.12
5.2559e-01,-0.84,-0.62
5.2598e-01,-0.98,-1.16
5.2636e-01,-0.92,-0.66
5.2675e-01,-0.82,-1.12
5.2713e-01,-0.84,-0.66
5.2751e-01,-0.82,-1.12
5.2790e-01,-0.86,-0.56
5.2828e-01,-0.92,-1.18
5.2867e-01,-0.86,-0.66
5.2905e-01,-0.9,-1.12
5.2943e-01,-0.88,-0.64
5.2982e-01,-0.94,-1.14
5.3020e-01,-0.88,-0.68
5.3059e-01,-0.94,-1.14
5.3097e-01,-0.86,-0.62
5.3135e-01,-0.94,-1.16
5.3174e-01,-0.88,-0.64
5.3212e-01,-1.04,-1.12
5.3251e-01,-0.84,-0.66
5.3289e-01,-0.86,-1.16
5.3327e-01,-0.96,-0.66
5.3366e-01,-1,-1.12
5.3404e-01,-0.84,-0.6
5.3443e-01,-0.88,-1.16
5.3481e-01,-0.84,-0.62
5.3519e-01,-0.8,-1.14
5.3558e-01,-0.78,-0.6
5.3596e-01,-0.92,-1.16
5.3635e-01,-0.86,-0.62
5.3673e-01,-0.9,-1.24
5.3711e-01,-0.86,-0.66
5.3750e-01,-0.86,-1.12
5.3788e-01,-0.98,-0.64
5.3827e-01,-0.76,-1.2
5.3865e-01,-0.82,-0.68
5.3903e-01,-0.74,-1.14
5.3942e-01,-0.94,-0.64
5.3980e-01,-0.86,-1.18
5.4019e-01,-0.92,-0.62
5.4057e-01,-0.88,-1.24
5.4095e-01,-0.9,-0.68
5.4134e-01,-0.92,-1.1
5.4172e-01,-0.94,-0.68
5.4211e-01,-0.96,-1.14
5.4249e-01,-0.94,-0.6
5.4287e-01,-0.9,-1.12
5.4326e-01,-0.96,-0.66
5.4364e-01,-0.8,-1.14
5.4403e-01,-1.04,-0.64
5.4441e-01,-0.86,-1.14
5.4479e-01,-0.82,-0.66
5.4518e-01,-0.96,-1.16
5.4556e-01,-0.86,-0.66
5.4595e-01,-1,-1.18
5.4633e-01,-0.92,-0.68
5.4671e-01,-0.98,-1.18
5.4710e-01,-0.9,-0.64
5.4748e-01,-1.02,-1.16
5.4787e-01,-0.94,-0.66
5.4825e-01,-0.82,-1.14
5.4863e-01,-0.84,-0.6
5.4902e-01,-0.84,-1.2
5.4940e-01,-0.82,-0.66
5.4979e-01,-0.92,-1.14
5.5017e-01,-0.82,-0.66
5.5055e-01,-0.9,-1.14
5.5094e-01,-0.82,-0.56
5.5132e-01,-0.86,-1.12
5.5171e-01,-0.86,-0.6
5.5209e-01,-0.86,-1.12
5.5248e-01,-0.84,-0.62
5.5286e-01,-0.92,-1.14
5.5324e-01,-0.82,-0.62
5.5363e-01,-0.84,-1.12
5.5401e-01,-0.82,-0.62
5.5440e-01,-0.86,-1.12
5.5478e-01,-0.78,-0.66
5.5516e-01,-0.78,-1.14
5.5555e-01,-0.98,-0.66
5.5593e-01,-0.86,-1.18
5.5632e-01,-0.86,-0.66
5.5670e-01,-0.84,-1.14
5.5708e-01,-0.94,-0.64
5.5747e-01,-0.84,-1.16
5.5785e-01,-0.74,-0.64
5.5824e-01,-0.94,-1.16
5.5862e-01,-0.66,-0.58
5.5900e-01,-0.94,-1.16
5.5939e-01,-0.94,-0.62
5.5977e-01,-0.94,-1.18
5.6016e-01,-0.98,-0.6
5.6054e-01,-0.8,-1.14
5.6092e-01,-1,-0.62
5.6131e-01,-1,-1.16
5.6169e-01,-0.8,-0.64
5.6208e-01,-0.86,-1.14
5.6246e-01,-0.92,-0.64
5.6284e-01,-0.84,-1.14
5.6323e-01,-0.88,-0.66
5.6361e-01,-0.82,-1.12
5.6400e-01,-0.82,-0.6
5.6438e-01,-0.8,-1.16
5.6476e-01,-0.82,-0.68
5.6515e-01,-1.02,-1.16
5.6553e-01,-0.84,-0.66
5.6592e-01,-0.9,-1.18
5.6630e-01,-0.84,-0.66
5.6668e-01,-0.76,-1.16
5.6707e-01,-0.98,-0.66
5.6745e-01,-0.92,-1.18
5.6784e-01,-0.84,-0.68
5.6822e-01,-0.82,-1.14
5.6860e-01,-0.82,-0.66
5.6899e-01,-0.86,-1.12
5.6937e-01,-0.82,-0.64
5.6976e-01,-0.94,-1.12
5.7014e-01,-0.82,-0.6
5.7052e-01,-0.82,-1.12
5.7091e-01,-0.92,-0.62
5.7129e-01,-1.02,-1.14
5.7168e-01,-0.82,-0.62
5.7206e-01,-0.78,-1.1
5.7244e-01,-0.88,-0.64
5.7283e-01,-0.94,-1.14
5.7321e-01,-0.9,-0.64
5.7360e-01,-0.88,-1.16
5.7398e-01,-0.88,-0.62
5.7436e-01,-0.88,-1.16
5.7475e-01,-0.88,-0.62
5.7513e-01,-0.88,-1.12
5.7552e-01,-1.04,-0.64
5.7590e-01,-0.96,-1.12
5.7628e-01,-0.84,-0.6
5.7667e-01,-0.88,-1.12
5.7705e-01,-1.02,-0.62
5.7744e-01,-1.1,-1.16
5.7782e-01,-0.94,-0.6
5.7820e-01,-0.86,-1.18
5.7859e-01,-0.9,-0.6
5.7897e-01,-0.86,-1.14
5.7936e-01,-1,-0.64
5.7974e-01,-0.8,-1.14
5.8012e-01,-0.8,-0.62
5.8051e-01,-0.8,-1.18
5.8089e-01,-0.98,-0.64
5.8128e-01,-0.98,-1.14
5.8166e-01,-0.9,-0.68
5.8204e-01,-0.9,-1.1
5.8243e-01,-0.94,-0.64
5.8281e-01,-0.84,-1.16
5.8320e-01,-0.8,-0.68
5.8358e-01,-0.84,-1.14
5.8397e-01,-0.84,-0.68
5.8435e-01,-0.74,-1.14
5.8473e-01,-0.84,-0.64
5.8512e-01,-0.86,-1.12
5.8550e-01,-0.94,-0.66
5.8589e-01,-0.88,-1.1
5.8627e-01,-0.8,-0.64
5.8665e-01,-0.84,-1.12
5.8704e-01,-0.88,-0.58
5.8742e-01,-1.04,-1.14
5.8781e-01,-0.78,-0.66
5.8819e-01,-0.8,-1.12
5.8857e-01,-0.9,-0.64
5.8896e-01,-1.08,-1.16
5.8934e-01,-0.92,-0.64
5.8973e-01,-0.92,-1.1
5.9011e-01,-0.9,-0.68
5.9049e-01,-1,-1.14
5.9088e-01,-0.96,-0.66
5.9126e-01,-1,-1.16
5.9165e-01,-0.94,-0.64
5.9203e-01,-0.9,-1.14
5.9241e-01,-0.82,-0.64
5.9280e-01,-0.96,-1.12
5.9318e-01,-0.9,-0.64
5.9357e-01,-0.88,-1.18
5.9395e-01,-0.9,-0.56
5.9433e-01,-0.9,-1.18
5.9472e-01,-0.96,-0.6
5.9510e-01,-0.86,-1.16
5.9549e-01,-0.82,-0.64
5.9587e-01,-0.92,-1.14
5.9625e-01,-0.98,-0.6
5.9664e-01,-1.06,-1.14
5.9702e-01,-0.94,-0.58
5.9741e-01,-0.8,-1.12
5.9779e-01,-0.78,-0.62
5.9817e-01,-0.86,-1.14
5.9856e-01,-1,-0.62
5.9894e-01,-1,-1.16
5.9933e-01,-0.88,-0.66
5.9971e-01,-0.88,-1.2
6.0009e-01,-0.86,-0.64
6.0048e-01,-0.86,-1.12
6.0086e-01,-0.84,-0.6
6.0125e-01,-0.9,-1.14
6.0163e-01,-0.84,-0.68
6.0201e-01,-0.76,-1.14
6.0240e-01,-0.88,-0.64
6.0278e-01,-1.04,-1.14
6.0317e-01,-0.76,-0.6
6.0355e-01,-0.72,-1.1
6.0393e-01,-0.92,-0.66
6.0432e-01,-0.9,-1.1
6.0470e-01,-0.88,-0.64
6.0509e-01,-0.98,-1.12
6.0547e-01,-0.88,-0.62
6.0585e-01,-0.86,-1.14
6.0624e-01,-0.86,-0.66
6.0662e-01,-0.98,-1.14
6.0701e-01,-0.78,-0.66
6.0739e-01,-0.96,-1.16
6.0777e-01,-0.86,-0.64
6.0816e-01,-1.02,-1.16
6.0854e-01,-1,-0.62
6.0893e-01,-1.06,-1.16
6.0931e-01,-0.82,-0.68
6.0969e-01,-1.02,-1.16
6.1008e-01,-0.94,-0.64
6.1046e-01,-0.9,-1.14
6.1085e-01,-0.96,-0.6
6.1123e-01,-0.86,-1.24
6.1161e-01,-0.88,-0.64
6.1200e-01,-0.9,-1.12
6.1238e-01,-0.88,-0.62
6.1277e-01,-0.9,-1.14
6.1315e-01,-0.88,-0.6
6.1353e-01,-0.86,-1.18
6.1392e-01,-0.92,-0.66
6.1430e-01,-0.96,-1.14
6.1469e-01,-1.04,-0.68
6.1507e-01,-0.82,-1.14
6.1546e-01,-0.82,-0.66
6.1584e-01,-1,-1.14
6.1622e-01,-0.94,-0.6
6.1661e-01,-1,-1.1
6.1699e-01,-0.88,-0.68
6.1738e-01,-0.78,-1.16
6.1776e-01,-0.86,-0.64
6.1814e-01,-1.1,-1.12
6.1853e-01,-0.94,-0.64
6.1891e-01,-0.96,-1.12
6.1930e-01,-0.88,-0.56
6.1968e-01,-0.92,-1.14
6.2006e-01,-0.92,-0.64
6.2045e-01,-0.98,-1.14
6.2083e-01,-0.84,-0.66
6.2122e-01,-0.76,-1.14
6.2160e-01,-0.98,-0.62
6.2198e-01,-0.96,-1.18
6.2237e-01,-0.78,-0.62
6.2275e-01,-1,-1.16
6.2314e-01,-0.98,-0.66
6.2352e-01,-0.94,-1.14
6.2390e-01,-0.9,-0.62
6.2429e-01,-0.94,-1.16
6.2467e-01,-0.78,-0.64
6.2506e-01,-0.88,-1.18
6.2544e-01,-0.78,-0.62
6.2582e-01,-0.82,-1.16
6.2621e-01,-1,-0.6
6.2659e-01,-0.94,-1.16
6.2698e-01,-0.88,-0.62
6.2736e-01,-0.8,-1.14
6.2774e-01,-0.94,-0.64
6.2813e-01,-0.88,-1.1
6.2851e-01,-1,-0.6
6.2890e-01,-0.9,-1.12
6.2928e-01,-0.86,-0.66
6.2966e-01,-0.9,-1.16
6.3005e-01,-0.92,-0.68
6.3043e-01,-0.94,-1.18
6.3082e-01,-0.84,-0.66
6.3120e-01,-0.8,-1.12
6.3158e-01,-0.88,-0.66
6.3197e-01,-0.98,-1.12
6.3235e-01,-0.88,-0.64
6.3274e-01,-0.86,-1.18
6.3312e-01,-0.8,-0.64
6.3350e-01,-0.94,-1.14
6.3389e-01,-0.9,-0.64
6.3427e-01,-0.82,-1.14
6.3466e-01,-0.88,-0.66
6.3504e-01,-0.78,-1.14
6.3542e-01,-0.76,-0.68
6.3581e-01,-0.92,-1.16
6.3619e-01,-0.98,-0.56
6.3658e-01,-0.92,-1.2
6.3696e-01,-0.84,-0.6
6.3734e-01,-0.86,-1.12
6.3773e-01,-0.86,-0.66
6.3811e-01,-0.92,-1.14
6.3850e-01,-0.84,-0.6
6.3888e-01,-0.86,-1.2
6.3926e-01,-0.82,-0.66
6.3965e-01,-0.9,-1.16
6.4003e-01,-0.88,-0.66
6.4042e-01,-1,-1.14
6.4080e-01,-0.88,-0.64
6.4118e-01,-0.74,-1.16
6.4157e-01,-0.86,-0.62
6.4195e-01,-0.96,-1.12
6.4234e-01,-0.88,-0.66
6.4272e-01,-0.92,-1.14
6.4310e-01,-0.94,-0.64
6.4349e-01,-0.78,-1.12
6.4387e-01,-0.96,-0.66
6.4426e-01,-0.94,-1.18
6.4464e-01,-0.74,-0.6
6.4502e-01,-0.84,-1.16
6.4541e-01,-0.9,-0.68
6.4579e-01,-0.92,-1.14
6.4618e-01,-0.88,-0.62
6.4656e-01,-0.82,-1.22
6.4695e-01,-0.88,-0.62
6.4733e-01,-0.82,-1.18
6.4771e-01,-0.96,-0.64
6.4810e-01,-0.96,-1.1
6.4848e-01,-0.82,-0.68
6.4887e-01,-0.86,-1.14
6.4925e-01,-0.84,-0.62
6.4963e-01,-0.86,-1.12
6.5002e-01,-1.02,-0.56
6.5040e-01,-0.9,-1.22
6.5079e-01,-0.72,-0.64
6.5117e-01,-0.88,-1.14
6.5155e-01,-0.82,-0.62
6.5194e-01,-0.88,-1.14
6.5232e-01,-0.76,-0.64
6.5271e-01,-0.9,-1.14
6.5309e-01,-0.88,-0.62
6.5347e-01,-0.84,-1.22
6.5386e-01,-0.88,-0.64
6.5424e-01,-0.82,-1.12
6.5463e-01,-0.86,-0.64
6.5501e-01,-0.84,-1.12
6.5539e-01,-0.78,-0.66
6.5578e-01,-0.88,-1.2
6.5616e-01,-1.02,-0.62
6.5655e-01,-0.88,-1.16
6.5693e-01,-0.98,-0.66
6.5731e-01,-0.78,-1.12
6.5770e-01,-0.86,-0.6
6.5808e-01,-0.92,-1.14
6.5847e-01,-0.98,-0.6
6.5885e-01,-0.9,-1.16
6.5923e-01,-0.84,-0.6
6.5962e-01,-1,-1.14
6.6000e-01,-0.82,-0.64
6.6039e-01,-0.92,-1.14
6.6077e-01,-0.86,-0.66
6.6115e-01,-0.82,-1.22
6.6154e-01,-0.88,-0.56
6.6192e-01,-0.86,-1.16
6.6231e-01,-0.82,-0.62
6.6269e-01,-0.88,-1.14
6.6307e-01,-0.82,-0.64
6.6346e-01,-0.8,-1.12
6.6384e-01,-0.88,-0.64
6.6423e-01,-0.96,-1.14
6.6461e-01,-0.84,-0.66
6.6499e-01,-0.9,-1.16
6.6538e-01,-0.78,-0.64
6.6576e-01,-0.9,-1.16
6.6615e-01,-0.9,-0.64
6.6653e-01,-0.92,-1.16
6.6691e-01,-0.8,-0.64
6.6730e-01,-0.86,-1.18
6.6768e-01,-0.96,-0.62
6.6807e-01,-0.88,-1.14
6.6845e-01,-0.78,-0.62
6.6883e-01,-0.8,-1.1
6.6922e-01,-0.88,-0.6
6.6960e-01,-0.94,-1.14
6.6999e-01,-0.84,-0.66
6.7037e-01,-0.88,-1.12
6.7075e-01,-0.88,-0.6
6.7114e-01,-0.84,-1.1
6.7152e-01,-1.04,-0.64
6.7191e-01,-0.9,-1.14
6.7229e-01,-0.92,-0.66
6.7267e-01,-0.94,-1.2
6.7306e-01,-0.8,-0.66
6.7344e-01,-0.82,-1.14
6.7383e-01,-0.96,-0.64
6.7421e-01,-0.84,-1.08
6.7459e-01,-0.9,-0.68
6.7498e-01,-0.92,-1.1
6.7536e-01,-1,-0.64
6.7575e-01,-1,-1.16
6.7613e-01,-0.9,-0.58
6.7651e-01,-0.76,-1.16
6.7690e-01,-0.84,-0.62
6.7728e-01,-0.94,-1.12
6.7767e-01,-0.84,-0.68
6.7805e-01,-0.92,-1.16
6.7844e-01,-0.74,-0.64
6.7882e-01,-0.92,-1.14
6.7920e-01,-1.06,-0.68
6.7959e-01,-0.94,-1.14
6.7997e-01,-0.84,-0.64
6.8036e-01,-0.82,-1.16
6.8074e-01,-0.94,-0.66
6.8112e-01,-0.88,-1.12
6.8151e-01,-0.9,-0.58
6.8189e-01,-0.8,-1.16
6.8228e-01,-0.86,-0.64
6.8266e-01,-0.96,-1.1
6.8304e-01,-1,-0.64
6.8343e-01,-0.9,-1.12
6.8381e-01,-0.86,-0.62
6.8420e-01,-0.88,-1.12
6.8458e-01,-0.92,-0.68
6.8496e-01,-0.94,-1.14
6.8535e-01,-0.94,-0.64
6.8573e-01,-0.9,-1.12
6.8612e-01,-0.76,-0.62
6.8650e-01,-0.9,-1.12
6.8688e-01,-0.84,-0.6
6.8727e-01,-0.96,-1.16
6.8765e-01,-0.92,-0.62
6.8804e-01,-0.76,-1.12
6.8842e-01,-0.9,-0.64
6.8880e-01,-0.84,-1.14
6.8919e-01,-1.04,-0.62
6.8957e-01,-0.86,-1.12
6.8996e-01,-0.82,-0.62
6.9034e-01,-0.88,-1.12
6.9072e-01,-0.86,-0.6
6.9111e-01,-0.98,-1.12
6.9149e-01,-0.9,-0.64
6.9188e-01,-0.92,-1.12
6.9226e-01,-0.88,-0.62
6.9264e-01,-0.94,-1.12
6.9303e-01,-0.94,-0.64
6.9341e-01,-0.92,-1.2
6.9380e-01,-0.86,-0.62
6.9418e-01,-0.84,-1.14
6.9456e-01,-0.84,-0.64
6.9495e-01,-0.86,-1.16
6.9533e-01,-0.76,-0.62
6.9572e-01,-0.94,-1.2
6.9610e-01,-0.98,-0.6
6.9648e-01,-0.86,-1.16
6.9687e-01,-1.08,-0.66
6.9725e-01,-0.88,-1.2
6.9764e-01,-0.86,-0.66
6.9802e-01,-0.76,-1.14
6.9840e-01,-0.92,-0.66
6.9879e-01,-0.96,-1.16
6.9917e-01,-0.9,-0.68
6.9956e-01,-0.94,-1.12
6.9994e-01,-0.78,-0.66
7.0032e-01,-1,-1.14
7.0071e-01,-0.92,-0.6
7.0109e-01,-0.82,-1.14
7.0148e-01,-0.94,-0.6
7.0186e-01,-0.86,-1.1
7.0224e-01,-0.8,-0.64
7.0263e-01,-0.92,-1.12
7.0301e-01,-0.84,-0.58
7.0340e-01,-0.82,-1.1
7.0378e-01,-0.86,-0.62
7.0416e-01,-0.86,-1.16
7.0455e-01,-0.94,-0.62
7.0493e-01,-0.78,-1.12
7.0532e-01,-0.94,-0.62
7.0570e-01,-0.76,-1.12
7.0608e-01,-0.86,-0.6
7.0647e-01,-0.96,-1.2
7.0685e-01,-0.92,-0.66
7.0724e-01,-0.94,-1.12
7.0762e-01,-0.94,-0.64
7.0800e-01,-0.84,-1.16
7.0839e-01,-0.82,-0.64
7.0877e-01,-0.9,-1.14
7.0916e-01,-0.88,-0.64
7.0954e-01,-0.78,-1.14
7.0993e-01,-0.94,-0.64
7.1031e-01,-0.9,-1.14
7.1069e-01,-0.88,-0.6
7.1108e-01,-0.94,-1.12
7.1146e-01,-0.8,-0.68
7.1185e-01,-0.66,-1.14
7.1223e-01,-0.92,-0.62
7.1261e-01,-0.92,-1.12
7.1300e-01,-0.96,-0.62
7.1338e-01,-0.86,-1.1
7.1377e-01,-0.88,-0.58
7.1415e-01,-0.86,-1.16
7.1453e-01,-0.96,-0.7
7.1492e-01,-0.92,-1.14
7.1530e-01,-0.86,-0.62
7.1569e-01,-0.9,-1.14
7.1607e-01,-0.9,-0.62
7.1645e-01,-0.94,-1.16
7.1684e-01,-0.86,-0.6
7.1722e-01,-0.86,-1.16
7.1761e-01,-0.9,-0.6
7.1799e-01,-0.82,-1.12
7.1837e-01,-0.9,-0.68
7.1876e-01,-0.96,-1.14
7.1914e-01,-0.88,-0.66
7.1953e-01,-0.84,-1.1
7.1991e-01,-0.82,-0.58
7.2029e-01,-0.92,-1.12
7.2068e-01,-0.84,-0.64
7.2106e-01,-0.82,-1.12
7.2145e-01,-0.84,-0.66
7.2183e-01,-0.92,-1.1
7.2221e-01,-0.76,-0.62
7.2260e-01,-0.92,-1.1
7.2298e-01,-0.8,-0.62
7.2337e-01,-0.92,-1.12
7.2375e-01,-0.84,-0.66
7.2413e-01,-0.84,-1.12
7.2452e-01,-0.86,-0.66
7.2490e-01,-0.86,-1.16
7.2529e-01,-0.84,-0.64
7.2567e-01,-0.82,-1.18
7.2605e-01,-0.9,-0.66
7.2644e-01,-0.98,-1.16
7.2682e-01,-0.98,-0.62
7.2721e-01,-0.88,-1.14
7.2759e-01,-0.86,-0.62
7.2797e-01,-1,-1.12
7.2836e-01,-0.84,-0.64
7.2874e-01,-0.86,-1.1
7.2913e-01,-0.8,-0.64
7.2951e-01,-0.9,-1.14
7.2989e-01,-0.92,-0.62
7.3028e-01,-0.92,-1.12
7.3066e-01,-0.96,-0.66
7.3105e-01,-0.82,-1.12
7.3143e-01,-0.94,-0.62
7.3181e-01,-0.94,-1.16
7.3220e-01,-0.86,-0.64
7.3258e-01,-0.88,-1.14
7.3297e-01,-0.9,-0.64
7.3335e-01,-0.8,-1.18
7.3373e-01,-0.96,-0.64
7.3412e-01,-0.94,-1.14
7.3450e-01,-0.96,-0.6
7.3489e-01,-0.96,-1.16
7.3527e-01,-0.8,-0.66
7.3565e-01,-0.82,-1.12
7.3604e-01,-0.94,-0.62
7.3642e-01,-0.96,-1.1
7.3681e-01,-0.92,-0.6
7.3719e-01,-0.84,-1.14
7.3757e-01,-0.94,-0.58
7.3796e-01,-1,-1.18
7.3834e-01,-0.84,-0.66
7.3873e-01,-0.84,-1.14
7.3911e-01,-0.86,-0.64
7.3949e-01,-0.98,-1.16
7.3988e-01,-0.9,-0.68
7.4026e-01,-0.98,-1.14
7.4065e-01,-0.92,-0.58
7.4103e-01,-0.78,-1.14
7.4142e-01,-0.86,-0.64
7.4180e-01,-0.96,-1.1
7.4218e-01,-0.86,-0.64
7.4257e-01,-0.92,-1.18
7.4295e-01,-0.86,-0.64
7.4334e-01,-0.74,-1.12
7.4372e-01,-0.88,-0.62
7.4410e-01,-0.82,-1.1
7.4449e-01,-0.92,-0.62
7.4487e-01,-0.72,-1.12
7.4526e-01,-0.76,-0.64
7.4564e-01,-0.92,-1.14
7.4602e-01,-0.9,-0.6
7.4641e-01,-0.92,-1.14
7.4679e-01,-0.86,-0.66
7.4718e-01,-0.96,-1.12
7.4756e-01,-1,-0.62
7.4794e-01,-0.92,-1.14
7.4833e-01,-0.92,-0.6
7.4871e-01,-0.86,-1.12
7.4910e-01,-0.88,-0.66
7.4948e-01,-0.8,-1.14
7.4986e-01,-0.96,-0.64
7.5025e-01,-0.9,-1.14
7.5063e-01,-0.74,-0.62
7.5102e-01,-0.74,-1.18
7.5140e-01,-0.84,-0.62
7.5178e-01,-1,-1.1
7.5217e-01,-0.74,-0.58
7.5255e-01,-0.68,-1.14
7.5294e-01,-0.9,-0.62
7.5332e-01,-0.94,-1.08
7.5370e-01,-0.86,-0.6
7.5409e-01,-0.86,-1.16
7.5447e-01,-0.9,-0.62
7.5486e-01,-0.82,-1.12
7.5524e-01,-0.9,-0.64
7.5562e-01,-0.94,-1.1
7.5601e-01,-0.92,-0.66
7.5639e-01,-0.98,-1.12
7.5678e-01,-0.86,-0.62
7.5716e-01,-0.84,-1.16
7.5754e-01,-0.9,-0.62
7.5793e-01,-0.86,-1.12
7.5831e-01,-0.82,-0.64
7.5870e-01,-0.78,-1.1
7.5908e-01,-0.9,-0.64
7.5946e-01,-0.88,-1.14
7.5985e-01,-0.9,-0.62
7.6023e-01,-0.8,-1.16
7.6062e-01,-0.88,-0.64
7.6100e-01,-0.84,-1.16
7.6138e-01,-0.9,-0.62
7.6177e-01,-0.84,-1.14
7.6215e-01,-0.86,-0.66
7.6254e-01,-0.82,-1.16
7.6292e-01,-0.92,-0.66
7.6330e-01,-0.98,-1.12
7.6369e-01,-0.98,-0.68
7.6407e-01,-0.94,-1.16
7.6446e-01,-0.94,-0.66
7.6484e-01,-0.8,-1.14
7.6522e-01,-1.02,-0.64
7.6561e-01,-1.04,-1.16
7.6599e-01,-1,-0.6
7.6638e-01,-1,-1.18
7.6676e-01,-0.82,-0.6
7.6714e-01,-0.82,-1.16
7.6753e-01,-0.88,-0.62
7.6791e-01,-0.94,-1.16
7.6830e-01,-0.88,-0.64
7.6868e-01,-0.78,-1.14
7.6906e-01,-0.82,-0.62
7.6945e-01,-0.88,-1.12
7.6983e-01,-0.8,-0.62
7.7022e-01,-0.78,-1.12
7.7060e-01,-0.76,-0.58
7.7098e-01,-0.88,-1.16
7.7137e-01,-1,-0.64
7.7175e-01,-1.06,-1.16
7.7214e-01,-0.92,-0.58
7.7252e-01,-0.88,-1.14
7.7291e-01,-0.92,-0.62
7.7329e-01,-0.86,-1.14
7.7367e-01,-0.8,-0.62
7.7406e-01,-0.78,-1.16
7.7444e-01,-0.84,-0.62
7.7483e-01,-0.88,-1.22
7.7521e-01,-0.92,-0.66
7.7559e-01,-0.9,-1.12
7.7598e-01,-0.88,-0.6
7.7636e-01,-0.86,-1.12
7.7675e-01,-0.88,-0.56
7.7713e-01,-0.86,-1.08
7.7751e-01,-0.98,-0.62
7.7790e-01,-0.84,-1.12
7.7828e-01,-0.74,-0.58
7.7867e-01,-0.94,-1.1
7.7905e-01,-0.86,-0.62
7.7943e-01,-0.96,-1.16
7.7982e-01,-0.9,-0.66
7.8020e-01,-0.9,-1.14
7.8059e-01,-0.96,-0.62
7.8097e-01,-0.88,-1.14
7.8135e-01,-0.82,-0.66
7.8174e-01,-0.96,-1.18
7.8212e-01,-0.92,-0.64
7.8251e-01,-0.8,-1.14
7.8289e-01,-0.8,-0.66
7.8327e-01,-0.9,-1.16
7.8366e-01,-0.94,-0.62
7.8404e-01,-0.68,-1.16
7.8443e-01,-0.78,-0.64
7.8481e-01,-0.84,-1.14
7.8519e-01,-0.96,-0.6
7.8558e-01,-0.64,-1.14
7.8596e-01,-0.86,-0.54
7.8635e-01,-0.84,-1.14
7.8673e-01,-0.98,-0.66
7.8711e-01,-0.92,-1.16
7.8750e-01,-1.02,-0.64
7.8788e-01,-0.82,-1.12
7.8827e-01,-0.76,-0.64
7.8865e-01,-0.84,-1.14
7.8903e-01,-0.86,-0.64
7.8942e-01,-0.94,-1.12
7.8980e-01,-0.8,-0.62
7.9019e-01,-0.88,-1.14
7.9057e-01,-1,-0.62
7.9095e-01,-0.9,-1.18
7.9134e-01,-0.88,-0.66
7.9172e-01,-0.88,-1.16
7.9211e-01,-0.8,-0.62
7.9249e-01,-0.86,-1.14
7.9287e-01,-0.94,-0.64
7.9326e-01,-0.96,-1.14
7.9364e-01,-0.88,-0.64
7.9403e-01,-0.84,-1.1
7.9441e-01,-0.84,-0.6
7.9479e-01,-0.98,-1.12
7.9518e-01,-0.94,-0.62
7.9556e-01,-0.8,-1.16
7.9595e-01,-0.88,-0.64
7.9633e-01,-0.84,-1.1
7.9671e-01,-1.04,-0.58
7.9710e-01,-0.98,-1.14
7.9748e-01,-0.88,-0.62
7.9787e-01,-0.78,-1.16
7.9825e-01,-0.9,-0.66
7.9863e-01,-0.84,-1.14
7.9902e-01,-0.96,-0.6
7.9940e-01,-0.94,-1.14
7.9979e-01,-0.98,-0.66
8.0017e-01,-0.82,-1.12
8.0055e-01,-0.82,-0.62
8.0094e-01,-0.9,-1.14
8.0132e-01,-0.72,-0.6
8.0171e-01,-0.82,-1.16
8.0209e-01,-0.9,-0.6
8.0248e-01,-0.92,-1.18
8.0286e-01,-0.98,-0.64
8.0324e-01,-0.96,-1.14
8.0363e-01,-0.82,-0.62
8.0401e-01,-0.78,-1.12
8.0440e-01,-0.94,-0.64
8.0478e-01,-0.88,-1.14
8.0516e-01,-0.92,-0.64
8.0555e-01,-0.84,-1.16
8.0593e-01,-0.86,-0.66
8.0632e-01,-0.88,-1.14
8.0670e-01,-0.9,-0.64
8.0708e-01,-0.86,-1.12
8.0747e-01,-0.86,-0.64
8.0785e-01,-0.82,-1.2
8.0824e-01,-0.84,-0.58
8.0862e-01,-0.94,-1.14
8.0900e-01,-0.98,-0.66
8.0939e-01,-0.72,-1.12
8.0977e-01,-0.8,-0.58
8.1016e-01,-0.82,-1.1
8.1054e-01,-0.8,-0.62
8.1092e-01,-0.82,-1.18
8.1131e-01,-0.98,-0.62
8.1169e-01,-0.92,-1.14
8.1208e-01,-0.9,-0.64
8.1246e-01,-0.94,-1.12
8.1284e-01,-0.94,-0.58
8.1323e-01,-0.76,-1.16
8.1361e-01,-0.8,-0.64
8.1400e-01,-0.98,-1.18
8.1438e-01,-0.94,-0.66
8.1476e-01,-0.96,-1.14
8.1515e-01,-0.86,-0.64
8.1553e-01,-0.94,-1.16
8.1592e-01,-0.88,-0.68
8.1630e-01,-0.94,-1.14
8.1668e-01,-0.72,-0.64
8.1707e-01,-0.82,-1.12
8.1745e-01,-0.92,-0.6
8.1784e-01,-0.86,-1.12
8.1822e-01,-0.88,-0.64
8.1860e-01,-1,-1.14
8.1899e-01,-0.9,-0.66
8.1937e-01,-0.76,-1.12
8.1976e-01,-0.98,-0.6
8.2014e-01,-0.88,-1.12
8.2052e-01,-0.8,-0.62
8.2091e-01,-1.06,-1.14
8.2129e-01,-0.92,-0.62
8.2168e-01,-0.88,-1.18
8.2206e-01,-1,-0.68
8.2244e-01,-0.92,-1.16
8.2283e-01,-0.84,-0.62
8.2321e-01,-0.84,-1.12
8.2360e-01,-0.82,-0.68
8.2398e-01,-0.9,-1.16
8.2436e-01,-0.96,-0.66
8.2475e-01,-0.84,-1.12
8.2513e-01,-0.88,-0.62
8.2552e-01,-0.92,-1.12
8.2590e-01,-0.82,-0.66
8.2628e-01,-0.98,-1.1
8.2667e-01,-0.88,-0.62
8.2705e-01,-0.84,-1.12
8.2744e-01,-0.92,-0.64
8.2782e-01,-0.8,-1.12
8.2820e-01,-0.86,-0.64
8.2859e-01,-0.9,-1.08
8.2897e-01,-0.78,-0.62
8.2936e-01,-0.8,-1.14
8.2974e-01,-0.96,-0.66
8.3012e-01,-0.96,-1.1
8.3051e-01,-0.82,-0.62
8.3089e-01,-0.92,-1.16
8.3128e-01,-0.88,-0.64
8.3166e-01,-0.94,-1.16
8.3204e-01,-0.84,-0.66
8.3243e-01,-0.84,-1.18
8.3281e-01,-0.98,-0.64
8.3320e-01,-0.8,-1.12
8.3358e-01,-0.82,-0.58
8.3397e-01,-0.88,-1.12
8.3435e-01,-0.86,-0.66
8.3473e-01,-0.86,-1.18
8.3512e-01,-0.88,-0.62
8.3550e-01,-0.76,-1.1
8.3589e-01,-0.72,-0.62
8.3627e-01,-0.82,-1.1
8.3665e-01,-0.92,-0.62
8.3704e-01,-0.76,-1.1
8.3742e-01,-0.9,-0.66
8.3781e-01,-0.94,-1.12
8.3819e-01,-0.84,-0.64
8.3857e-01,-0.9,-1.18
8.3896e-01,-0.88,-0.66
8.3934e-01,-0.98,-1.14
8.3973e-01,-0.88,-0.64
8.4011e-01,-0.92,-1.16
8.4049e-01,-0.84,-0.62
8.4088e-01,-0.8,-1.18
8.4126e-01,-0.84,-0.62
8.4165e-01,-0.9,-1.14
8.4203e-01,-0.9,-0.62
8.4241e-01,-0.9,-1.18
8.4280e-01,-0.78,-0.66
8.4318e-01,-0.88,-1.18
8.4357e-01,-1,-0.64
8.4395e-01,-0.98,-1.08
8.4433e-01,-0.94,-0.6
8.4472e-01,-0.84,-1.12
8.4510e-01,-0.72,-0.66
8.4549e-01,-0.82,-1.1
8.4587e-01,-0.86,-0.6
8.4625e-01,-0.88,-1.08
8.4664e-01,-0.76,-0.68
8.4702e-01,-0.88,-1.16
8.4741e-01,-1,-0.62
8.4779e-01,-1.04,-1.12
8.4817e-01,-0.98,-0.66
8.4856e-01,-0.98,-1.16
8.4894e-01,-0.9,-0.64
8.4933e-01,-0.8,-1.14
8.4971e-01,-0.96,-0.64
8.5009e-01,-0.88,-1.18
8.5048e-01,-0.92,-0.6
8.5086e-01,-0.74,-1.12
8.5125e-01,-0.78,-0.64
8.5163e-01,-0.78,-1.16
8.5201e-01,-0.94,-0.58
8.5240e-01,-0.86,-1.1
8.5278e-01,-0.98,-0.66
8.5317e-01,-0.82,-1.12
8.5355e-01,-0.86,-0.62
8.5393e-01,-0.92,-1.12
8.5432e-01,-0.82,-0.64
8.5470e-01,-0.7,-1.14
8.5509e-01,-0.82,-0.62
8.5547e-01,-0.92,-1.14
8.5585e-01,-0.94,-0.62
8.5624e-01,-1.02,-1.16
8.5662e-01,-0.84,-0.66
8.5701e-01,-0.78,-1.1
8.5739e-01,-0.92,-0.62
8.5777e-01,-0.94,-1.14
8.5816e-01,-0.84,-0.6
8.5854e-01,-0.98,-1.14
8.5893e-01,-0.88,-0.64
8.5931e-01,-0.72,-1.14
8.5969e-01,-0.94,-0.64
8.6008e-01,-0.86,-1.14
8.6046e-01,-0.86,-0.66
8.6085e-01,-0.84,-1.1
8.6123e-01,-0.84,-0.64
8.6161e-01,-0.84,-1.1
8.6200e-01,-0.92,-0.66
8.6238e-01,-0.86,-1.1
8.6277e-01,-0.96,-0.64
8.6315e-01,-0.92,-1.12
8.6353e-01,-0.7,-0.62
8.6392e-01,-0.8,-1.12
8.6430e-01,-0.76,-0.64
8.6469e-01,-0.82,-1.14
8.6507e-01,-0.76,-0.64
8.6546e-01,-0.84,-1.18
8.6584e-01,-1,-0.58
8.6622e-01,-0.82,-1.14
8.6661e-01,-0.74,-0.64
8.6699e-01,-1.02,-1.1
8.6738e-01,-0.9,-0.66
8.6776e-01,-1.02,-1.14
8.6814e-01,-0.9,-0.6
8.6853e-01,-0.84,-1.1
8.6891e-01,-0.92,-0.6
8.6930e-01,-0.9,-1.12
8.6968e-01,-0.96,-0.58
8.7006e-01,-0.8,-1.12
8.7045e-01,-0.76,-0.64
8.7083e-01,-0.8,-1.1
8.7122e-01,-0.98,-0.6
8.7160e-01,-0.92,-1.12
8.7198e-01,-0.84,-0.64
8.7237e-01,-0.86,-1.14
8.7275e-01,-0.9,-0.66
8.7314e-01,-0.92,-1.12
8.7352e-01,-0.94,-0.62
8.7390e-01,-1,-1.1
8.7429e-01,-0.88,-0.62
8.7467e-01,-0.84,-1.1
8.7506e-01,-0.94,-0.66
8.7544e-01,-1.02,-1.18
8.7582e-01,-1,-0.64
8.7621e-01,-0.82,-1.1
8.7659e-01,-0.84,-0.64
8.7698e-01,-0.82,-1.12
8.7736e-01,-1.02,-0.62
8.7774e-01,-0.92,-1.14
8.7813e-01,-0.88,-0.64
8.7851e-01,-0.88,-1.16
8.7890e-01,-0.8,-0.64
8.7928e-01,-0.92,-1.08
8.7966e-01,-0.86,-0.68
8.8005e-01,-0.92,-1.14
8.8043e-01,-0.84,-0.6
8.8082e-01,-0.92,-1.16
8.8120e-01,-0.96,-0.56
8.8158e-01,-0.94,-1.14
8.8197e-01,-0.84,-0.64
8.8235e-01,-0.9,-1.12
8.8274e-01,-0.92,-0.64
8.8312e-01,-0.86,-1.18
8.8350e-01,-0.92,-0.6
8.8389e-01,-0.82,-1.12
8.8427e-01,-0.8,-0.66
8.8466e-01,-0.92,-1.14
8.8504e-01,-0.86,-0.64
8.8542e-01,-0.94,-1.16
8.8581e-01,-0.8,-0.62
8.8619e-01,-0.82,-1.08
8.8658e-01,-0.92,-0.62
8.8696e-01,-0.88,-1.14
8.8734e-01,-1,-0.62
8.8773e-01,-0.76,-1.12
8.8811e-01,-0.88,-0.56
8.8850e-01,-0.92,-1.16
8.8888e-01,-0.86,-0.6
8.8926e-01,-1,-1.1
8.8965e-01,-0.82,-0.64
8.9003e-01,-0.9,-1.1
8.9042e-01,-0.94,-0.64
8.9080e-01,-0.96,-1.1
8.9118e-01,-0.8,-0.56
8.9157e-01,-0.92,-1.16
8.9195e-01,-0.84,-0.62
8.9234e-01,-0.74,-1.14
8.9272e-01,-0.88,-0.58
8.9310e-01,-0.74,-1.16
8.9349e-01,-0.86,-0.62
8.9387e-01,-0.84,-1.1
8.9426e-01,-0.9,-0.62
8.9464e-01,-0.88,-1.12
8.9502e-01,-0.94,-0.62
8.9541e-01,-0.92,-1.08
8.9579e-01,-0.84,-0.62
8.9618e-01,-0.88,-1.18
8.9656e-01,-0.8,-0.6
8.9695e-01,-0.98,-1.12
8.9733e-01,-0.9,-0.62
8.9771e-01,-0.86,-2.92
8.9810e-01,-0.84,-0.62
8.9848e-01,-0.54,-2.92
8.9887e-01,-0.54,-0.24
8.9925e-01,-0.7,-0.96
8.9963e-01,-0.56,-0.38
9.0002e-01,-0.66,-1.04
9.0040e-01,-0.84,-0.48
9.0079e-01,-0.8,-1.04
9.0117e-01,-0.88,-0.6
9.0155e-01,-0.84,-1.12
9.0194e-01,-0.84,-0.54
9.0232e-01,-0.84,-1.16
9.0271e-01,-0.84,-0.6
9.0309e-01,-0.96,-1.12
9.0347e-01,-0.96,-0.66
9.0386e-01,-0.9,-1.1
9.0424e-01,-0.8,-0.54
9.0463e-01,-0.9,-1.12
9.0501e-01,-0.98,-0.62
9.0539e-01,-0.88,-1.18
9.0578e-01,-0.92,-0.62
9.0616e-01,-0.8,-1.14
9.0655e-01,-1.08,-0.66
9.0693e-01,-0.96,-1.1
9.0731e-01,-1.02,-0.64
9.0770e-01,-0.84,-1.16
9.0808e-01,-0.98,-0.64
9.0847e-01,-0.94,-1.18
9.0885e-01,-0.9,-0.66
9.0923e-01,-0.86,-1.16
9.0962e-01,-0.84,-0.66
9.1000e-01,-0.86,-1.14
9.1039e-01,-0.9,-0.66
9.1077e-01,-0.96,-1.1
9.1115e-01,-0.86,-0.6
9.1154e-01,-0.8,-1.12
9.1192e-01,-0.78,-0.64
9.1231e-01,-0.78,-1.16
9.1269e-01,-0.84,-0.64
9.1307e-01,-0.92,-1.14
9.1346e-01,-0.98,-0.58
9.1384e-01,-0.76,-1.14
9.1423e-01,-0.88,-0.66
9.1461e-01,-0.9,-1.16
9.1499e-01,-0.94,-0.68
9.1538e-01,-0.88,-1.16
9.1576e-01,-0.78,-0.66
9.1615e-01,-0.84,-1.12
9.1653e-01,-1.02,-0.68
9.1691e-01,-0.94,-1.14
9.1730e-01,-0.88,-0.64
9.1768e-01,-0.82,-1.14
9.1807e-01,-0.86,-0.62
9.1845e-01,-0.78,-1.16
9.1883e-01,-1,-0.64
9.1922e-01,-0.9,-1.14
9.1960e-01,-0.86,-0.62
9.1999e-01,-0.88,-1.12
9.2037e-01,-0.9,-0.62
9.2075e-01,-0.86,-1.14
9.2114e-01,-0.92,-0.64
9.2152e-01,-0.84,-1.22
9.2191e-01,-0.76,-0.64
9.2229e-01,-0.82,-1.14
9.2267e-01,-0.92,-0.62
9.2306e-01,-0.84,-1.18
9.2344e-01,-0.92,-0.62
9.2383e-01,-0.92,-1.2
9.2421e-01,-1,-0.66
9.2459e-01,-0.92,-1.16
9.2498e-01,-0.86,-0.62
9.2536e-01,-0.96,-1.12
9.2575e-01,-0.84,-0.66
9.2613e-01,-0.86,-1.1
9.2651e-01,-0.78,-0.6
9.2690e-01,-0.94,-1.18
9.2728e-01,-0.9,-0.62
9.2767e-01,-0.82,-1.2
9.2805e-01,-0.92,-0.62
9.2844e-01,-0.92,-1.14
9.2882e-01,-0.9,-0.66
9.2920e-01,-0.78,-1.16
9.2959e-01,-0.94,-0.64
9.2997e-01,-0.82,-1.18
9.3036e-01,-0.88,-0.66
9.3074e-01,-0.9,-1.14
9.3112e-01,-0.86,-0.68
9.3151e-01,-0.82,-1.16
9.3189e-01,-0.94,-0.7
9.3228e-01,-0.92,-1.16
9.3266e-01,-1,-0.64
9.3304e-01,-0.96,-1.18
9.3343e-01,-0.76,-0.62
9.3381e-01,-0.92,-1.18
9.3420e-01,-0.86,-0.66
9.3458e-01,-1,-1.14
9.3496e-01,-0.86,-0.66
9.3535e-01,-0.88,-1.14
9.3573e-01,-0.94,-0.68
9.3612e-01,-0.84,-1.18
9.3650e-01,-1,-0.66
9.3688e-01,-0.9,-1.16
9.3727e-01,-0.8,-0.64
9.3765e-01,-0.76,-1.18
9.3804e-01,-1.14,-0.66
9.3842e-01,-1,-1.16
9.3880e-01,-0.92,-0.7
9.3919e-01,-0.82,-1.16
9.3957e-01,-0.88,-0.66
9.3996e-01,-0.98,-1.16
9.4034e-01,-1,-0.68
9.4072e-01,-0.92,-1.22
9.4111e-01,-0.94,-0.66
9.4149e-01,-1.04,-1.14
9.4188e-01,-0.92,-0.64
9.4226e-01,-0.92,-1.16
9.4264e-01,-0.94,-0.68
9.4303e-01,-0.8,-1.14
9.4341e-01,-0.9,-0.64
9.4380e-01,-0.9,-1.14
9.4418e-01,-0.84,-0.64
9.4456e-01,-0.94,-1.14
9.4495e-01,-0.92,-0.64
9.4533e-01,-0.88,-1.18
9.4572e-01,-1,-0.68
9.4610e-01,-0.92,-1.16
9.4648e-01,-0.94,-0.64
9.4687e-01,-0.88,-1.18
9.4725e-01,-0.92,-0.62
9.4764e-01,-0.84,-1.16
9.4802e-01,-0.92,-0.68
9.4840e-01,-0.84,-1.16
9.4879e-01,-0.82,-0.64
9.4917e-01,-0.92,-1.14
9.4956e-01,-0.96,-0.62
9.4994e-01,-1,-1.16
9.5032e-01,-0.86,-0.68
9.5071e-01,-0.8,-1.14
9.5109e-01,-0.9,-0.7
9.5148e-01,-0.88,-1.16
9.5186e-01,-0.92,-0.6
9.5224e-01,-1,-1.18
9.5263e-01,-0.78,-0.62
9.5301e-01,-0.94,-1.1
9.5340e-01,-0.82,-0.64
9.5378e-01,-0.84,-1.12
9.5416e-01,-0.94,-0.7
9.5455e-01,-0.86,-1.2
9.5493e-01,-0.9,-0.7
9.5532e-01,-0.92,-1.14
9.5570e-01,-0.86,-0.66
9.5608e-01,-0.94,-1.18
9.5647e-01,-0.9,-0.66
9.5685e-01,-0.78,-1.18
9.5724e-01,-0.8,-0.68
9.5762e-01,-0.88,-1.18
9.5800e-01,-0.98,-0.66
9.5839e-01,-0.94,-1.18
9.5877e-01,-0.78,-0.64
9.5916e-01,-0.98,-1.14
9.5954e-01,-0.88,-0.66
9.5993e-01,-0.98,-1.22
9.6031e-01,-0.98,-0.62
9.6069e-01,-0.8,-1.16
9.6108e-01,-0.92,-0.6
9.6146e-01,-0.86,-1.16
9.6185e-01,-0.84,-0.66
9.6223e-01,-0.92,-1.18
9.6261e-01,-0.82,-0.66
9.6300e-01,-1.02,-1.14
9.6338e-01,-0.88,-0.64
9.6377e-01,-1.08,-1.14
9.6415e-01,-0.8,-0.68
9.6453e-01,-1,-1.18
9.6492e-01,-0.88,-0.64
9.6530e-01,-0.98,-1.16
9.6569e-01,-0.84,-0.68
9.6607e-01,-1.08,-1.16
9.6645e-01,-0.92,-0.66
9.6684e-01,-0.78,-1.16
9.6722e-01,-0.92,-0.68
9.6761e-01,-1.08,-1.2
9.6799e-01,-0.86,-0.68
9.6837e-01,-0.84,-1.18
9.6876e-01,-0.82,-0.66
9.6914e-01,-0.9,-1.16
9.6953e-01,-1.02,-0.66
9.6991e-01,-0.96,-1.18
9.7029e-01,-0.84,-0.64
9.7068e-01,-0.96,-1.18
9.7106e-01,-0.9,-0.68
9.7145e-01,-0.94,-1.16
9.7183e-01,-0.92,-0.66
9.7221e-01,-0.88,-1.12
9.7260e-01,-0.84,-0.62
9.7298e-01,-0.84,-1.18
9.7337e-01,-0.96,-0.66
9.7375e-01,-0.84,-1.22
9.7413e-01,-0.96,-0.62
9.7452e-01,-0.8,-1.16
9.7490e-01,-0.84,-0.62
9.7529e-01,-0.94,-1.14
9.7567e-01,-0.98,-0.66
9.7605e-01,-0.86,-1.18
9.7644e-01,-0.78,-0.68
9.7682e-01,-0.94,-1.16
9.7721e-01,-0.88,-0.64
9.7759e-01,-0.84,-1.16
9.7797e-01,-0.9,-0.66
9.7836e-01,-0.86,-1.16
9.7874e-01,-0.9,-0.66
9.7913e-01,-0.9,-1.16
9.7951e-01,-0.88,-0.68
9.7989e-01,-0.92,-1.18
9.8028e-01,-0.86,-0.68
9.8066e-01,-0.84,-1.14
9.8105e-01,-0.88,-0.66
9.8143e-01,-0.92,-1.16
9.8181e-01,-0.94,-0.66
9.8220e-01,-0.92,-1.18
9.8258e-01,-1.02,-0.64
9.8297e-01,-0.82,-1.2
9.8335e-01,-1,-0.64
9.8373e-01,-0.9,-1.14
9.8412e-01,-0.86,-0.68
9.8450e-01,-0.76,-1.12
9.8489e-01,-0.94,-0.68
9.8527e-01,-0.96,-1.14
9.8565e-01,-0.96,-0.68
9.8604e-01,-0.98,-1.14
9.8642e-01,-0.98,-0.66
9.8681e-01,-0.88,-1.14
9.8719e-01,-0.94,-0.66
9.8757e-01,-0.96,-1.12
9.8796e-01,-0.94,-0.68
9.8834e-01,-0.92,-1.14
9.8873e-01,-0.8,-0.68
9.8911e-01,-0.98,-1.18
9.8949e-01,-0.92,-0.6
9.8988e-01,-0.96,-1.14
9.9026e-01,-0.92,-0.66
9.9065e-01,-0.98,-1.16
9.9103e-01,-0.9,-0.68
9.9142e-01,-0.94,-1.16
9.9180e-01,-0.9,-0.64
9.9218e-01,-0.86,-1.16
9.9257e-01,-0.76,-0.62
9.9295e-01,-0.94,-1.18
9.9334e-01,-0.88,-0.66
9.9372e-01,-0.96,-1.16
9.9410e-01,-0.88,-0.68
9.9449e-01,-0.92,-1.18
9.9487e-01,-0.92,-0.66
9.9526e-01,-0.92,-1.16
9.9564e-01,-1,-0.66
9.9602e-01,-0.74,-1.18
9.9641e-01,-0.96,-0.7
9.9679e-01,-0.9,-1.14
9.9718e-01,-0.9,-0.66
9.9756e-01,-1,-1.18
9.9794e-01,-0.82,-0.64
9.9833e-01,-0.82,-1.14
9.9871e-01,-0.9,-0.64
9.9910e-01,-0.98,-1.14
9.9948e-01,-0.86,-0.54
9.9986e-01,-0.84,-1.16
1.0002e+00,-0.82,-0.64
1.0006e+00,-0.94,-1.14
1.0010e+00,-0.94,-0.66
1.0014e+00,-0.98,-1.14
1.0018e+00,-0.78,-0.64
1.0022e+00,-0.92,-1.2
1.0026e+00,-0.9,-0.6
1.0029e+00,-0.9,-1.18
1.0033e+00,-0.92,-0.6
1.0037e+00,-0.9,-1.16
1.0041e+00,-0.88,-0.66
1.0045e+00,-1.02,-1.18
1.0049e+00,-0.94,-0.66
1.0052e+00,-0.92,-1.22
1.0056e+00,-0.9,-0.58
1.0060e+00,-0.9,-1.16
1.0064e+00,-1.02,-0.7
1.0068e+00,-0.8,-1.18
1.0072e+00,-0.9,-0.62
1.0075e+00,-1,-1.16
1.0079e+00,-0.9,-0.64
1.0083e+00,-0.78,-1.18
1.0087e+00,-0.94,-0.7
1.0091e+00,-0.92,-1.14
1.0095e+00,-0.96,-0.68
1.0098e+00,-0.82,-1.14
1.0102e+00,-0.76,-0.66
1.0106e+00,-0.96,-1.18
1.0110e+00,-0.92,-0.6
1.0114e+00,-0.84,-1.2
1.0118e+00,-0.86,-0.66
1.0122e+00,-0.88,-1.18
1.0125e+00,-0.76,-0.66
1.0129e+00,-0.96,-1.18
1.0133e+00,-0.9,-0.66
1.0137e+00,-0.84,-1.12
1.0141e+00,-0.78,-0.62
1.0145e+00,-1,-1.2
1.0148e+00,-0.84,-0.68
1.0152e+00,-0.92,-1.18
1.0156e+00,-0.94,-0.7
1.0160e+00,-0.82,-1.16
1.0164e+00,-0.92,-0.66
1.0168e+00,-0.94,-1.16
1.0171e+00,-1.06,-0.66
1.0175e+00,-0.82,-1.14
1.0179e+00,-0.84,-0.68
1.0183e+00,-0.8,-1.14
1.0187e+00,-1,-0.68
1.0191e+00,-0.98,-1.16
1.0194e+00,-0.92,-0.66
1.0198e+00,-0.88,-1.14
1.0202e+00,-0.92,-0.66
1.0206e+00,-0.86,-1.16
1.0210e+00,-0.92,-0.64
1.0214e+00,-1.04,-1.18
1.0218e+00,-0.9,-0.62
1.0221e+00,-0.9,-1.16
1.0225e+00,-0.92,-0.68
1.0229e+00,-0.96,-1.16
1.0233e+00,-0.82,-0.66
1.0237e+00,-0.86,-1.14
1.0241e+00,-1.02,-0.66
1.0244e+00,-0.84,-1.2
1.0248e+00,-0.9,-0.7
1.0252e+00,-0.92,-1.14
1.0256e+00,-0.82,-0.64
1.0260e+00,-0.92,-1.14
1.0264e+00,-0.88,-0.66
1.0267e+00,-0.98,-1.16
1.0271e+00,-0.92,-0.62
1.0275e+00,-0.9,-1.16
1.0279e+00,-0.84,-0.68
1.0283e+00,-0.98,-1.16
1.0287e+00,-1,-0.66
1.0290e+00,-0.84,-1.14
1.0294e+00,-0.76,-0.66
1.0298e+00,-0.96,-1.18
1.0302e+00,-0.94,-0.68
1.0306e+00,-0.88,-1.16
1.0310e+00,-0.92,-0.64
1.0314e+00,-0.76,-1.18
1.0317e+00,-0.9,-0.66
1.0321e+00,-0.96,-1.2
1.0325e+00,-0.88,-0.66
1.0329e+00,-0.84,-1.14
1.0333e+00,-1.02,-0.68
1.0337e+00,-0.9,-1.16
1.0340e+00,-0.92,-0.66
1.0344e+00,-0.96,-1.24
1.0348e+00,-1,-0.68
1.0352e+00,-0.9,-1.2
1.0356e+00,-0.84,-0.66
1.0360e+00,-1,-1.16
1.0363e+00,-0.82,-0.64
1.0367e+00,-0.86,-1.16
1.0371e+00,-0.86,-0.68
1.0375e+00,-0.98,-1.2
1.0379e+00,-0.78,-0.68
1.0383e+00,-0.92,-1.12
1.0387e+00,-0.84,-0.64
1.0390e+00,-1,-1.14
1.0394e+00,-0.86,-0.62
1.0398e+00,-0.92,-1.16
1.0402e+00,-1.02,-0.66
1.0406e+00,-0.9,-1.18
1.0410e+00,-0.9,-0.7
1.0413e+00,-0.9,-1.18
1.0417e+00,-0.96,-0.68
1.0421e+00,-0.88,-1.16
1.0425e+00,-0.96,-0.64
1.0429e+00,-0.88,-1.14
1.0433e+00,-0.9,-0.7
1.0436e+00,-0.94,-1.16
1.0440e+00,-1.02,-0.64
1.0444e+00,-0.9,-1.14
1.0448e+00,-0.94,-0.66
1.0452e+00,-0.9,-1.16
1.0456e+00,-0.86,-0.68
1.0459e+00,-0.88,-1.2
1.0463e+00,-1.02,-0.66
1.0467e+00,-0.96,-1.16
1.0471e+00,-0.8,-0.68
1.0475e+00,-0.84,-1.14
1.0479e+00,-0.88,-0.66
1.0483e+00,-0.9,-1.2
1.0486e+00,-1.02,-0.68
1.0490e+00,-0.94,-1.2
1.0494e+00,-0.94,-0.66
1.0498e+00,-1.06,-1.18
1.0502e+00,-0.96,-0.7
1.0506e+00,-0.98,-1.16
1.0509e+00,-0.88,-0.7
1.0513e+00,-0.88,-1.18
1.0517e+00,-0.86,-0.68
1.0521e+00,-1,-1.18
1.0525e+00,-0.82,-0.66
1.0529e+00,-0.84,-1.2
1.0532e+00,-1.06,-0.6
1.0536e+00,-0.84,-1.16
1.0540e+00,-0.86,-0.62
1.0544e+00,-0.92,-1.22
1.0548e+00,-0.88,-0.66
1.0552e+00,-0.9,-1.22
1.0555e+00,-0.98,-0.66
1.0559e+00,-0.88,-1.14
1.0563e+00,-0.88,-0.68
1.0567e+00,-0.88,-1.14
1.0571e+00,-0.96,-0.66
1.0575e+00,-0.9,-1.16
1.0579e+00,-1.04,-0.62
1.0582e+00,-0.9,-1.14
1.0586e+00,-0.86,-0.68
1.0590e+00,-0.9,-1.14
1.0594e+00,-0.96,-0.66
1.0598e+00,-0.88,-1.14
1.0602e+00,-0.94,-0.64
1.0605e+00,-1,-1.14
1.0609e+00,-0.9,-0.66
1.0613e+00,-0.94,-1.16
1.0617e+00,-0.9,-0.7
1.0621e+00,-1.04,-1.18
1.0625e+00,-0.72,-0.68
1.0628e+00,-0.9,-1.18
1.0632e+00,-0.88,-0.62
1.0636e+00,-1,-1.14
1.0640e+00,-0.9,-0.68
1.0644e+00,-0.82,-1.14
1.0648e+00,-0.92,-0.68
1.0651e+00,-0.96,-1.14
1.0655e+00,-0.98,-0.62
1.0659e+00,-0.9,-1.2
1.0663e+00,-0.94,-0.7
1.0667e+00,-0.86,-1.18
1.0671e+00,-0.9,-0.66
1.0675e+00,-0.98,-1.14
1.0678e+00,-0.92,-0.68
1.0682e+00,-0.92,-1.18
1.0686e+00,-0.8,-0.7
1.0690e+00,-1.04,-1.24
1.0694e+00,-0.84,-0.64
1.0698e+00,-1.02,-1.14
1.0701e+00,-1,-0.64
1.0705e+00,-0.86,-1.14
1.0709e+00,-0.96,-0.66
1.0713e+00,-0.8,-1.14
1.0717e+00,-0.9,-0.66
1.0721e+00,-0.88,-1.16
1.0724e+00,-0.86,-0.7
1.0728e+00,-0.94,-1.16
1.0732e+00,-0.98,-0.62
1.0736e+00,-0.82,-1.22
1.0740e+00,-0.84,-0.64
1.0744e+00,-0.9,-1.2
1.0747e+00,-0.8,-0.66
1.0751e+00,-0.84,-1.14
1.0755e+00,-0.98,-0.64
1.0759e+00,-0.98,-1.16
1.0763e+00,-0.68,-0.64
1.0767e+00,-0.94,-1.18
1.0771e+00,-0.94,-0.64
1.0774e+00,-0.98,-1.18
1.0778e+00,-0.92,-0.66
1.0782e+00,-0.9,-1.14
1.0786e+00,-0.94,-0.66
1.0790e+00,-0.92,-1.18
1.0794e+00,-0.96,-0.68
1.0797e+00,-0.94,-1.14
1.0801e+00,-0.88,-0.66
1.0805e+00,-0.92,-1.16
1.0809e+00,-0.8,-0.7
1.0813e+00,-0.96,-1.14
1.0817e+00,-0.88,-0.72
1.0820e+00,-0.84,-1.14
1.0824e+00,-0.82,-0.68
1.0828e+00,-0.96,-1.16
1.0832e+00,-1.06,-0.66
1.0836e+00,-0.94,-1.14
1.0840e+00,-0.94,-0.68
1.0843e+00,-0.78,-1.18
1.0847e+00,-0.9,-0.66
1.0851e+00,-0.96,-1.14
1.0855e+00,-0.86,-0.66
1.0859e+00,-0.94,-1.16
1.0863e+00,-0.78,-0.68
1.0867e+00,-0.92,-1.14
1.0870e+00,-0.92,-0.68
1.0874e+00,-0.94,-1.2
1.0878e+00,-0.88,-0.62
1.0882e+00,-0.92,-1.16
1.0886e+00,-0.84,-0.68
1.0890e+00,-0.94,-1.16
1.0893e+00,-0.84,-0.68
1.0897e+00,-0.88,-1.22
1.0901e+00,-0.82,-0.66
1.0905e+00,-0.92,-1.16
1.0909e+00,-0.84,-0.66
1.0913e+00,-0.92,-1.14
1.0916e+00,-0.96,-0.66
1.0920e+00,-0.9,-1.14
1.0924e+00,-0.84,-0.62
1.0928e+00,-0.84,-1.16
1.0932e+00,-0.9,-0.58
1.0936e+00,-1.04,-1.16
1.0939e+00,-0.88,-0.66
1.0943e+00,-0.9,-1.18
1.0947e+00,-0.92,-0.6
1.0951e+00,-0.88,-1.18
1.0955e+00,-0.96,-0.64
1.0959e+00,-0.86,-1.2
1.0963e+00,-0.84,-0.7
1.0966e+00,-0.86,-1.2
1.0970e+00,-0.98,-0.58
1.0974e+00,-0.94,-1.16
1.0978e+00,-0.98,-0.7
1.0982e+00,-0.9,-1.22
1.0986e+00,-1,-0.66
1.0989e+00,-1.06,-1.16
1.0993e+00,-1.02,-0.66
1.0997e+00,-0.9,-1.18
1.1001e+00,-0.82,-0.68
1.1005e+00,-0.78,-1.18
1.1009e+00,-1.02,-0.7
1.1012e+00,-0.92,-1.18
1.1016e+00,-0.86,-0.64
1.1020e+00,-0.86,-1.12
1.1024e+00,-0.88,-0.58
1.1028e+00,-0.92,-1.14
1.1032e+00,-0.92,-0.62
1.1036e+00,-1,-1.18
1.1039e+00,-1.02,-0.66
1.1043e+00,-0.84,-1.2
1.1047e+00,-0.82,-0.64
1.1051e+00,-0.82,-1.14
1.1055e+00,-0.92,-0.68
1.1059e+00,-0.9,-1.2
1.1062e+00,-1,-0.66
1.1066e+00,-0.84,-1.18
1.1070e+00,-0.94,-0.7
1.1074e+00,-1.12,-1.18
1.1078e+00,-0.92,-0.7
1.1082e+00,-0.9,-1.14
1.1085e+00,-1,-0.64
1.1089e+00,-0.94,-1.18
1.1093e+00,-0.98,-0.66
1.1097e+00,-0.74,-1.22
1.1101e+00,-1.08,-0.64
1.1105e+00,-0.94,-1.16
1.1108e+00,-0.78,-0.66
1.1112e+00,-1,-1.16
1.1116e+00,-0.92,-0.66
1.1120e+00,-0.86,-1.14
1.1124e+00,-0.96,-0.64
1.1128e+00,-1.04,-1.18
1.1132e+00,-0.98,-0.66
1.1135e+00,-0.94,-1.16
1.1139e+00,-0.68,-0.66
1.1143e+00,-0.86,-1.16
1.1147e+00,-0.98,-0.58
1.1151e+00,-0.86,-1.2
1.1155e+00,-0.94,-0.64
1.1158e+00,-0.78,-1.22
1.1162e+00,-0.86,-0.7
1.1166e+00,-1.08,-1.2
1.1170e+00,-1.06,-0.62
1.1174e+00,-0.88,-1.16
1.1178e+00,-0.92,-0.66
1.1181e+00,-1,-1.12
1.1185e+00,-0.88,-0.68
1.1189e+00,-0.88,-1.14
1.1193e+00,-0.94,-0.64
1.1197e+00,-0.72,-1.14
1.1201e+00,-0.8,-0.68
1.1204e+00,-0.92,-1.14
1.1208e+00,-0.92,-0.66
1.1212e+00,-1.02,-1.14
1.1216e+00,-0.84,-0.66
1.1220e+00,-0.84,-1.16
1.1224e+00,-0.96,-0.64
1.1228e+00,-0.98,-1.2
1.1231e+00,-0.88,-0.66
1.1235e+00,-0.86,-1.18
1.1239e+00,-0.88,-0.68
1.1243e+00,-0.86,-1.18
1.1247e+00,-1.02,-0.66
1.1251e+00,-1.02,-1.2
1.1254e+00,-0.82,-0.64
1.1258e+00,-0.88,-1.14
1.1262e+00,-1,-0.64
1.1266e+00,-1,-1.24
1.1270e+00,-0.96,-0.62
1.1274e+00,-0.96,-1.18
1.1277e+00,-0.86,-0.66
1.1281e+00,-0.8,-1.18
1.1285e+00,-0.98,-0.64
1.1289e+00,-0.86,-1.12
1.1293e+00,-0.78,-0.66
1.1297e+00,-0.86,-1.16
1.1300e+00,-0.9,-0.66
1.1304e+00,-0.94,-1.18
1.1308e+00,-0.94,-0.64
1.1312e+00,-0.84,-1.24
1.1316e+00,-0.92,-0.66
1.1320e+00,-0.96,-1.18
1.1324e+00,-1.02,-0.66
1.1327e+00,-0.92,-1.18
1.1331e+00,-0.84,-0.66
1.1335e+00,-0.88,-1.16
1.1339e+00,-0.98,-0.64
1.1343e+00,-0.84,-1.14
1.1347e+00,-0.98,-0.64
1.1350e+00,-1,-1.16
1.1354e+00,-0.84,-0.68
1.1358e+00,-1.14,-1.24
1.1362e+00,-0.96,-0.68
1.1366e+00,-0.88,-1.2
1.1370e+00,-1,-0.68
1.1373e+00,-0.84,-1.18
1.1377e+00,-0.86,-0.7
1.1381e+00,-0.92,-1.16
1.1385e+00,-0.92,-0.7
1.1389e+00,-0.9,-1.2
1.1393e+00,-0.84,-0.66
1.1396e+00,-0.78,-1.18
1.1400e+00,-1.02,-0.7
1.1404e+00,-0.94,-1.18
1.1408e+00,-0.94,-0.66
1.1412e+00,-0.84,-1.22
1.1416e+00,-0.84,-0.68
1.1420e+00,-0.98,-1.18
1.1423e+00,-0.82,-0.66
1.1427e+00,-1,-1.14
1.1431e+00,-0.82,-0.58
1.1435e+00,-0.84,-1.14
1.1439e+00,-0.9,-0.66
1.1443e+00,-1.02,-1.14
1.1446e+00,-0.94,-0.68
1.1450e+00,-0.86,-1.12
1.1454e+00,-0.96,-0.66
1.1458e+00,-0.84,-1.16
1.1462e+00,-0.9,-0.66
1.1466e+00,-0.94,-1.2
1.1469e+00,-0.78,-0.68
1.1473e+00,-0.94,-1.16
1.1477e+00,-0.84,-0.64
1.1481e+00,-0.92,-1.2
1.1485e+00,-0.96,-0.68
1.1489e+00,-0.86,-1.14
1.1492e+00,-0.72,-0.66
1.1496e+00,-0.94,-1.16
1.1500e+00,-0.94,-0.68
1.1504e+00,-0.86,-1.14
1.1508e+00,-0.9,-0.66
1.1512e+00,-0.82,-1.14
1.1516e+00,-0.84,-0.66
1.1519e+00,-0.74,-1.18
1.1523e+00,-1,-0.64
1.1527e+00,-0.78,-1.16
1.1531e+00,-0.82,-0.62
1.1535e+00,-0.98,-1.14
1.1539e+00,-0.96,-0.68
1.1542e+00,-1,-1.14
1.1546e+00,-1,-0.68
1.1550e+00,-0.84,-1.16
1.1554e+00,-0.92,-0.66
1.1558e+00,-1.02,-1.14
1.1562e+00,-1.02,-0.66
1.1565e+00,-0.96,-1.16
1.1569e+00,-0.92,-0.62
1.1573e+00,-0.76,-1.16
1.1577e+00,-0.98,-0.66
1.1581e+00,-0.9,-1.12
1.1585e+00,-0.94,-0.66
1.1588e+00,-0.88,-1.2
1.1592e+00,-0.88,-0.66
1.1596e+00,-0.8,-1.16
1.1600e+00,-0.92,-0.64
1.1604e+00,-1,-1.16
1.1608e+00,-0.84,-0.7
1.1612e+00,-0.96,-1.18
1.1615e+00,-0.96,-0.66
1.1619e+00,-0.88,-1.16
1.1623e+00,-0.92,-0.66
1.1627e+00,-0.84,-1.16
1.1631e+00,-0.88,-0.66
1.1635e+00,-0.92,-1.14
1.1638e+00,-0.86,-0.68
1.1642e+00,-0.78,-1.18
1.1646e+00,-0.92,-0.7
1.1650e+00,-0.84,-1.16
1.1654e+00,-0.88,-0.68
1.1658e+00,-0.98,-1.2
1.1661e+00,-0.96,-0.7
1.1665e+00,-0.86,-1.2
1.1669e+00,-0.7,-0.68
1.1673e+00,-0.78,-1.18
1.1677e+00,-1.04,-0.64
1.1681e+00,-0.86,-1.16
1.1685e+00,-0.92,-0.68
1.1688e+00,-0.96,-1.2
1.1692e+00,-0.82,-0.6
1.1696e+00,-0.72,-1.14
1.1700e+00,-0.92,-0.62
1.1704e+00,-1.02,-1.18
1.1708e+00,-0.92,-0.68
1.1711e+00,-0.94,-1.16
1.1715e+00,-0.92,-0.7
1.1719e+00,-1.04,-1.2
1.1723e+00,-0.88,-0.68
1.1727e+00,-0.92,-1.2
1.1731e+00,-0.94,-0.6
1.1734e+00,-0.98,-1.18
1.1738e+00,-0.96,-0.7
1.1742e+00,-0.92,-1.2
1.1746e+00,-0.96,-0.7
1.1750e+00,-0.88,-1.18
1.1754e+00,-0.94,-0.7
1.1757e+00,-0.9,-1.18
1.1761e+00,-1.02,-0.66
1.1765e+00,-0.9,-1.2
1.1769e+00,-0.92,-0.66
1.1773e+00,-0.92,-1.16
1.1777e+00,-1,-0.6
1.1781e+00,-0.94,-1.18
1.1784e+00,-0.7,-0.62
1.1788e+00,-0.9,-1.14
1.1792e+00,-0.82,-0.62
1.1796e+00,-0.94,-1.14
1.1800e+00,-0.84,-0.7
1.1804e+00,-0.86,-1.2
1.1807e+00,-0.84,-0.66
1.1811e+00,-0.86,-1.16
1.1815e+00,-0.9,-0.62
1.1819e+00,-0.92,-1.14
1.1823e+00,-0.92,-0.66
1.1827e+00,-0.74,-1.22
1.1830e+00,-0.82,-0.66
1.1834e+00,-0.94,-1.18
1.1838e+00,-0.98,-0.68
1.1842e+00,-0.82,-1.14
1.1846e+00,-0.88,-0.68
1.1850e+00,-0.98,-1.16
1.1853e+00,-0.92,-0.66
1.1857e+00,-1.02,-1.16
1.1861e+00,-0.94,-0.68
1.1865e+00,-0.8,-1.18
1.1869e+00,-0.94,-0.64
1.1873e+00,-0.94,-1.14
1.1877e+00,-0.94,-0.64
1.1880e+00,-0.88,-1.14
1.1884e+00,-0.92,-0.62
1.1888e+00,-1.04,-1.16
1.1892e+00,-0.88,-0.66
1.1896e+00,-1.08,-1.2
1.1900e+00,-0.94,-0.7
1.1903e+00,-0.88,-1.18
1.1907e+00,-0.88,-0.68
1.1911e+00,-0.88,-1.16
1.1915e+00,-0.84,-0.66
1.1919e+00,-0.9,-1.18
1.1923e+00,-0.94,-0.68
1.1926e+00,-0.84,-1.14
1.1930e+00,-0.84,-0.66
1.1934e+00,-0.88,-1.14
1.1938e+00,-0.94,-0.66
1.1942e+00,-0.88,-1.2
1.1946e+00,-0.9,-0.7
1.1949e+00,-0.94,-1.12
1.1953e+00,-0.98,-0.66
1.1957e+00,-0.96,-1.14
1.1961e+00,-0.88,-0.64
1.1965e+00,-0.68,-1.2
1.1969e+00,-0.98,-0.64
1.1973e+00,-0.9,-1.16
1.1976e+00,-0.92,-0.7
1.1980e+00,-0.94,-1.16
1.1984e+00,-0.9,-0.66
1.1988e+00,-0.9,-1.18
1.1992e+00,-1,-0.7
1.1996e+00,-0.9,-1.14
1.1999e+00,-0.86,-0.7
1.2003e+00,-0.72,-1.18
1.2007e+00,-0.8,-0.7
1.2011e+00,-1,-1.18
1.2015e+00,-1.02,-0.62
1.2019e+00,-0.8,-1.18
1.2022e+00,-0.92,-0.66
1.2026e+00,-0.88,-1.18
1.2030e+00,-1,-0.68
1.2034e+00,-0.98,-1.14
1.2038e+00,-0.94,-0.68
1.2042e+00,-1,-1.16
1.2045e+00,-0.98,-0.66
1.2049e+00,-0.94,-1.14
1.2053e+00,-0.96,-0.68
1.2057e+00,-0.96,-1.14
1.2061e+00,-0.86,-0.66
1.2065e+00,-0.94,-1.16
1.2069e+00,-0.92,-0.64
1.2072e+00,-1.04,-1.2
1.2076e+00,-0.94,-0.7
1.2080e+00,-0.92,-1.14
1.2084e+00,-0.8,-0.64
1.2088e+00,-0.94,-1.16
1.2092e+00,-0.98,-0.68
1.2095e+00,-0.84,-1.2
1.2099e+00,-0.92,-0.66
1.2103e+00,-0.94,-1.14
1.2107e+00,-0.88,-0.66
1.2111e+00,-0.92,-1.14
1.2115e+00,-0.86,-0.68
1.2118e+00,-0.94,-1.18
1.2122e+00,-1.04,-0.68
1.2126e+00,-0.84,-1.2
1.2130e+00,-0.98,-0.66
1.2134e+00,-0.92,-1.14
1.2138e+00,-0.88,-0.68
1.2141e+00,-0.8,-1.2
1.2145e+00,-1.04,-0.68
1.2149e+00,-0.84,-1.16
1.2153e+00,-0.9,-0.64
1.2157e+00,-0.98,-1.16
1.2161e+00,-0.94,-0.68
1.2165e+00,-0.8,-1.16
1.2168e+00,-0.98,-0.68
1.2172e+00,-0.82,-1.14
1.2176e+00,-0.84,-0.66
1.2180e+00,-0.96,-1.16
1.2184e+00,-0.98,-0.66
1.2188e+00,-0.96,-1.18
1.2191e+00,-0.88,-0.64
1.2195e+00,-0.92,-1.16
1.2199e+00,-0.92,-0.68
1.2203e+00,-0.96,-1.22
1.2207e+00,-1.02,-0.62
1.2211e+00,-1,-1.14
1.2214e+00,-1.02,-0.64
1.2218e+00,-0.84,-1.16
1.2222e+00,-0.96,-0.7
1.2226e+00,-0.98,-1.18
1.2230e+00,-1.02,-0.62
1.2234e+00,-0.82,-1.24
1.2237e+00,-0.84,-0.7
1.2241e+00,-0.88,-1.16
1.2245e+00,-1,-0.64
1.2249e+00,-0.98,-1.18
1.2253e+00,-0.9,-0.64
1.2257e+00,-0.9,-1.12
1.2261e+00,-0.96,-0.66
1.2264e+00,-0.96,-1.16
1.2268e+00,-0.92,-0.66
1.2272e+00,-0.92,-1.14
1.2276e+00,-0.88,-0.66
1.2280e+00,-0.76,-1.16
1.2284e+00,-1,-0.62
1.2287e+00,-1.02,-1.18
1.2291e+00,-0.88,-0.64
1.2295e+00,-0.82,-1.2
1.2299e+00,-0.96,-0.68
1.2303e+00,-0.84,-1.2
1.2307e+00,-0.84,-0.64
1.2310e+00,-1.04,-1.14
1.2314e+00,-0.84,-0.64
1.2318e+00,-0.78,-1.18
1.2322e+00,-0.9,-0.66
1.2326e+00,-1.14,-1.18
1.2330e+00,-0.9,-0.66
1.2334e+00,-0.88,-1.16
1.2337e+00,-0.84,-0.64
1.2341e+00,-0.88,-1.18
1.2345e+00,-0.86,-0.64
1.2349e+00,-0.96,-1.16
1.2353e+00,-0.82,-0.68
1.2357e+00,-0.9,-1.18
1.2360e+00,-1.02,-0.68
1.2364e+00,-0.98,-1.16
1.2368e+00,-1.1,-0.6
1.2372e+00,-0.96,-1.16
1.2376e+00,-0.78,-0.66
1.2380e+00,-1,-1.16
1.2383e+00,-0.92,-0.7
1.2387e+00,-0.86,-1.22
1.2391e+00,-0.98,-0.7
1.2395e+00,-0.98,-1.14
1.2399e+00,-0.86,-0.64
1.2403e+00,-0.92,-1.22
1.2406e+00,-0.92,-0.66
1.2410e+00,-0.92,-1.16
1.2414e+00,-0.88,-0.66
1.2418e+00,-0.84,-1.14
1.2422e+00,-0.9,-0.64
1.2426e+00,-0.88,-1.18
1.2430e+00,-1.08,-0.64
1.2433e+00,-0.9,-1.14
1.2437e+00,-0.82,-0.68
1.2441e+00,-1.06,-1.16
1.2445e+00,-1.04,-0.58
1.2449e+00,-0.82,-1.16
1.2453e+00,-0.8,-0.62
1.2456e+00,-0.98,-1.16
1.2460e+00,-1,-0.66
1.2464e+00,-0.88,-1.18
1.2468e+00,-0.84,-0.62
1.2472e+00,-0.96,-1.16
1.2476e+00,-0.94,-0.68
1.2479e+00,-1,-1.16
1.2483e+00,-0.94,-0.64
1.2487e+00,-0.98,-1.2
1.2491e+00,-0.82,-0.62
1.2495e+00,-0.84,-1.14
1.2499e+00,-0.84,-0.66
1.2502e+00,-0.9,-1.14
1.2506e+00,-0.88,-0.68
1.2510e+00,-0.78,-1.18
1.2514e+00,-0.92,-0.64
1.2518e+00,-0.92,-1.18
1.2522e+00,-0.92,-0.68
1.2526e+00,-0.88,-1.14
1.2529e+00,-0.9,-0.66
1.2533e+00,-0.76,-1.2
1.2537e+00,-0.82,-0.64
1.2541e+00,-0.94,-1.14
1.2545e+00,-0.9,-0.68
1.2549e+00,-0.92,-1.18
1.2552e+00,-0.8,-0.7
1.2556e+00,-0.74,-1.18
1.2560e+00,-0.94,-0.64
1.2564e+00,-0.94,-1.16
1.2568e+00,-0.9,-0.64
1.2572e+00,-0.82,-1.18
1.2575e+00,-0.98,-0.66
1.2579e+00,-1.06,-1.18
1.2583e+00,-0.86,-0.62
1.2587e+00,-0.96,-1.22
1.2591e+00,-0.9,-0.66
1.2595e+00,-0.96,-1.18
1.2598e+00,-0.96,-0.6
1.2602e+00,-0.86,-1.18
1.2606e+00,-1.06,-0.6
1.2610e+00,-0.78,-1.16
1.2614e+00,-0.92,-0.62
1.2618e+00,-0.94,-1.16
1.2622e+00,-1,-0.64
1.2625e+00,-0.92,-1.12
1.2629e+00,-1.06,-0.64
1.2633e+00,-0.94,-1.24
1.2637e+00,-1,-0.66
1.2641e+00,-0.86,-1.24
1.2645e+00,-0.88,-0.62
1.2648e+00,-0.8,-1.16
1.2652e+00,-0.98,-0.66
1.2656e+00,-0.88,-1.18
1.2660e+00,-0.84,-0.66
1.2664e+00,-1,-1.2
1.2668e+00,-1.02,-0.66
1.2671e+00,-0.78,-1.14
1.2675e+00,-0.98,-0.68
1.2679e+00,-0.9,-1.14
1.2683e+00,-0.88,-0.6
1.2687e+00,-0.76,-1.16
1.2691e+00,-0.9,-0.68
1.2694e+00,-0.98,-1.22
1.2698e+00,-0.96,-0.62
1.2702e+00,-0.84,-1.16
1.2706e+00,-0.86,-0.64
1.2710e+00,-0.94,-1.16
1.2714e+00,-0.96,-0.64
1.2718e+00,-0.94,-1.18
1.2721e+00,-0.92,-0.72
1.2725e+00,-0.94,-1.14
1.2729e+00,-0.88,-0.68
1.2733e+00,-0.9,-1.18
1.2737e+00,-0.9,-0.64
1.2741e+00,-0.84,-1.16
1.2744e+00,-0.94,-0.68
1.2748e+00,-0.96,-1.18
1.2752e+00,-0.84,-0.66
1.2756e+00,-0.98,-1.16
1.2760e+00,-0.94,-0.66
1.2764e+00,-0.82,-1.18
1.2767e+00,-0.8,-0.62
1.2771e+00,-0.94,-1.18
1.2775e+00,-0.88,-0.62
1.2779e+00,-0.98,-1.18
1.2783e+00,-1.06,-0.66
1.2787e+00,-0.96,-1.16
1.2790e+00,-0.9,-0.66
1.2794e+00,-0.86,-1.2
1.2798e+00,-1.06,-0.64
1.2802e+00,-0.86,-1.14
1.2806e+00,-0.84,-0.66
1.2810e+00,-0.88,-1.2
1.2814e+00,-0.96,-0.7
1.2817e+00,-0.96,-1.18
1.2821e+00,-0.9,-0.66
1.2825e+00,-0.84,-1.16
1.2829e+00,-0.88,-0.68
1.2833e+00,-0.92,-1.18
1.2837e+00,-0.9,-0.66
1.2840e+00,-0.9,-1.18
1.2844e+00,-0.82,-0.64
1.2848e+00,-0.92,-1.14
1.2852e+00,-0.9,-0.64
1.2856e+00,-0.94,-1.14
1.2860e+00,-0.88,-0.62
1.2863e+00,-0.92,-1.16
1.2867e+00,-0.92,-0.64
1.2871e+00,-0.98,-1.16
1.2875e+00,-0.92,-0.64
1.2879e+00,-0.96,-1.18
1.2883e+00,-0.98,-0.68
1.2887e+00,-0.88,-1.18
1.2890e+00,-0.96,-0.66
1.2894e+00,-0.96,-1.16
1.2898e+00,-0.88,-0.7
1.2902e+00,-0.98,-1.2
1.2906e+00,-0.8,-0.62
1.2910e+00,-0.88,-1.14
1.2913e+00,-0.92,-0.66
1.2917e+00,-0.92,-1.18
1.2921e+00,-0.94,-0.66
1.2925e+00,-0.82,-1.14
1.2929e+00,-0.9,-0.62
1.2933e+00,-1.06,-1.2
1.2936e+00,-0.9,-0.64
1.2940e+00,-0.94,-1.14
1.2944e+00,-1,-0.68
1.2948e+00,-0.9,-1.12
1.2952e+00,-0.78,-0.66
1.2956e+00,-0.92,-1.14
1.2959e+00,-0.84,-0.66
1.2963e+00,-1,-1.16
1.2967e+00,-0.82,-0.6
1.2971e+00,-0.84,-1.18
1.2975e+00,-0.94,-0.62
1.2979e+00,-1,-1.2
1.2983e+00,-0.92,-0.68
1.2986e+00,-0.9,-1.14
1.2990e+00,-0.94,-0.62
1.2994e+00,-0.88,-1.12
1.2998e+00,-1,-0.66
1.3002e+00,-1.04,-1.16
1.3006e+00,-0.88,-0.62
1.3009e+00,-0.96,-1.14
1.3013e+00,-0.96,-0.68
1.3017e+00,-0.98,-1.14
1.3021e+00,-0.9,-0.68
1.3025e+00,-0.68,-1.2
1.3029e+00,-1,-0.68
1.3032e+00,-1.04,-1.24
1.3036e+00,-0.88,-0.66
1.3040e+00,-0.92,-1.14
1.3044e+00,-0.86,-0.68
1.3048e+00,-0.9,-1.18
1.3052e+00,-0.9,-0.64
1.3055e+00,-0.98,-1.18
1.3059e+00,-0.98,-0.62
1.3063e+00,-0.9,-1.2
1.3067e+00,-0.98,-0.64
1.3071e+00,-0.88,-1.14
1.3075e+00,-0.84,-0.7
1.3079e+00,-0.78,-1.14
1.3082e+00,-0.86,-0.68
1.3086e+00,-0.82,-1.18
1.3090e+00,-1,-0.66
1.3094e+00,-0.94,-1.12
1.3098e+00,-0.86,-0.64
1.3102e+00,-0.9,-1.24
1.3105e+00,-0.98,-0.64
1.3109e+00,-0.9,-1.12
1.3113e+00,-0.98,-0.64
1.3117e+00,-0.84,-1.14
1.3121e+00,-0.92,-0.68
1.3125e+00,-0.96,-1.18
1.3128e+00,-0.8,-0.64
1.3132e+00,-0.92,-1.14
1.3136e+00,-0.92,-0.68
1.3140e+00,-0.86,-1.18
1.3144e+00,-0.96,-0.7
1.3148e+00,-1.04,-1.2
1.3151e+00,-0.92,-0.68
1.3155e+00,-0.96,-1.16
1.3159e+00,-0.78,-0.7
1.3163e+00,-1,-1.2
1.3167e+00,-0.84,-0.64
1.3171e+00,-0.96,-1.14
1.3175e+00,-0.92,-0.6
1.3178e+00,-0.76,-1.16
1.3182e+00,-0.9,-0.64
1.3186e+00,-0.88,-1.18
1.3190e+00,-0.9,-0.68
1.3194e+00,-0.84,-1.18
1.3198e+00,-0.94,-0.68
1.3201e+00,-0.86,-1.16
1.3205e+00,-0.86,-0.66
1.3209e+00,-0.76,-1.14
1.3213e+00,-0.86,-0.62
1.3217e+00,-0.8,-1.18
1.3221e+00,-1,-0.66
1.3224e+00,-1,-1.16
1.3228e+00,-0.92,-0.64
1.3232e+00,-0.82,-1.2
1.3236e+00,-0.9,-0.66
1.3240e+00,-0.84,-1.16
1.3244e+00,-0.86,-0.68
1.3247e+00,-1,-1.14
1.3251e+00,-0.76,-0.64
1.3255e+00,-0.88,-1.1
1.3259e+00,-0.8,-0.66
1.3263e+00,-0.84,-1.2
1.3267e+00,-0.86,-0.7
1.3271e+00,-0.92,-1.18
1.3274e+00,-0.92,-0.62
1.3278e+00,-0.96,-1.14
1.3282e+00,-0.9,-0.64
1.3286e+00,-0.82,-1.14
1.3290e+00,-0.76,-0.64
1.3294e+00,-0.88,-1.12
1.3297e+00,-0.86,-0.64
1.3301e+00,-0.94,-1.22
1.3305e+00,-0.88,-0.66
1.3309e+00,-0.98,-1.16
1.3313e+00,-0.84,-0.68
1.3317e+00,-0.92,-1.16
1.3320e+00,-0.84,-0.66
1.3324e+00,-0.9,-1.12
1.3328e+00,-0.98,-0.66
1.3332e+00,-0.88,-1.14
1.3336e+00,-0.88,-0.64
1.3340e+00,-0.94,-1.14
1.3343e+00,-0.94,-0.62
1.3347e+00,-0.92,-1.14
1.3351e+00,-0.98,-0.68
1.3355e+00,-0.84,-1.16
1.3359e+00,-0.68,-0.66
1.3363e+00,-0.92,-1.14
1.3367e+00,-0.92,-0.66
1.3370e+00,-0.94,-1.14
1.3374e+00,-0.98,-0.64
1.3378e+00,-0.82,-1.14
1.3382e+00,-0.92,-0.64
1.3386e+00,-1,-1.2
1.3390e+00,-0.88,-0.66
1.3393e+00,-0.96,-1.14
1.3397e+00,-0.94,-0.68
1.3401e+00,-0.92,-1.2
1.3405e+00,-0.92,-0.64
1.3409e+00,-0.98,-1.22
1.3413e+00,-0.92,-0.58
1.3416e+00,-0.92,-1.2
1.3420e+00,-0.92,-0.64
1.3424e+00,-0.96,-1.16
1.3428e+00,-0.92,-0.68
1.3432e+00,-0.9,-1.18
1.3436e+00,-0.94,-0.7
1.3439e+00,-0.84,-1.14
1.3443e+00,-0.98,-0.66
1.3447e+00,-0.92,-1.14
1.3451e+00,-0.96,-0.62
1.3455e+00,-0.98,-1.16
1.3459e+00,-0.9,-0.66
1.3463e+00,-0.88,-1.2
1.3466e+00,-0.98,-0.64
1.3470e+00,-0.98,-1.18
1.3474e+00,-0.9,-0.64
1.3478e+00,-0.98,-1.22
1.3482e+00,-1.02,-0.68
1.3486e+00,-0.94,-1.12
1.3489e+00,-0.88,-0.62
1.3493e+00,-0.94,-1.16
1.3497e+00,-0.94,-0.66
1.3501e+00,-1.02,-1.16
1.3505e+00,-1,-0.7
1.3509e+00,-0.98,-1.16
1.3512e+00,-0.84,-0.62
1.3516e+00,-0.94,-1.16
1.3520e+00,-0.96,-0.64
1.3524e+00,-0.98,-1.16
1.3528e+00,-0.92,-0.66
1.3532e+00,-0.82,-1.16
1.3536e+00,-0.94,-0.68
1.3539e+00,-0.94,-1.14
1.3543e+00,-0.88,-0.68
1.3547e+00,-1,-1.16
1.3551e+00,-0.9,-0.6
1.3555e+00,-0.88,-1.18
1.3559e+00,-0.92,-0.64
1.3562e+00,-0.9,-1.14
1.3566e+00,-0.9,-0.68
1.3570e+00,-0.9,-1.18
1.3574e+00,-0.84,-0.64
1.3578e+00,-0.92,-1.18
1.3582e+00,-0.98,-0.68
1.3585e+00,-0.94,-1.18
1.3589e+00,-0.88,-0.7
1.3593e+00,-0.9,-1.18
1.3597e+00,-0.94,-0.66
1.3601e+00,-0.9,-1.14
1.3605e+00,-0.84,-0.64
1.3608e+00,-0.86,-1.16
1.3612e+00,-0.94,-0.68
1.3616e+00,-0.88,-1.18
1.3620e+00,-0.94,-0.68
1.3624e+00,-0.8,-1.18
1.3628e+00,-0.86,-0.62
1.3632e+00,-0.82,-1.14
1.3635e+00,-0.96,-0.68
1.3639e+00,-1.02,-1.18
1.3643e+00,-0.92,-0.68
1.3647e+00,-0.96,-1.2
1.3651e+00,-1,-0.68
1.3655e+00,-1.04,-1.18
1.3658e+00,-1.04,-0.7
1.3662e+00,-0.92,-1.16
1.3666e+00,-1.02,-0.66
1.3670e+00,-0.8,-1.14
1.3674e+00,-0.98,-0.62
1.3678e+00,-0.94,-1.1
1.3681e+00,-0.98,-0.6
1.3685e+00,-0.94,-1.18
1.3689e+00,-0.96,-0.66
1.3693e+00,-0.88,-1.18
1.3697e+00,-0.9,-0.66
1.3701e+00,-1,-1.18
1.3704e+00,-0.86,-0.64
1.3708e+00,-0.78,-1.12
1.3712e+00,-0.78,-0.62
1.3716e+00,-0.9,-1.26
1.3720e+00,-1.06,-0.68
1.3724e+00,-1.02,-1.22
1.3728e+00,-0.8,-0.68
1.3731e+00,-0.94,-1.2
1.3735e+00,-0.94,-0.6
1.3739e+00,-0.98,-1.16
1.3743e+00,-0.9,-0.66
1.3747e+00,-0.9,-1.14
1.3751e+00,-0.94,-0.66
1.3754e+00,-0.88,-1.14
1.3758e+00,-0.88,-0.64
1.3762e+00,-0.88,-1.18
1.3766e+00,-0.84,-0.68
1.3770e+00,-0.84,-1.18
1.3774e+00,-0.96,-0.64
1.3777e+00,-0.9,-1.18
1.3781e+00,-0.9,-0.7
1.3785e+00,-0.88,-1.18
1.3789e+00,-0.82,-0.66
1.3793e+00,-0.92,-1.18
1.3797e+00,-1,-0.68
1.3800e+00,-0.96,-1.2
1.3804e+00,-0.86,-0.62
1.3808e+00,-0.98,-1.18
1.3812e+00,-1.04,-0.66
1.3816e+00,-0.88,-1.16
1.3820e+00,-0.98,-0.64
1.3824e+00,-0.84,-1.18
1.3827e+00,-0.86,-0.64
1.3831e+00,-0.92,-1.16
1.3835e+00,-0.86,-0.66
1.3839e+00,-1.06,-1.12
1.3843e+00,-0.96,-0.7
1.3847e+00,-0.82,-1.12
1.3850e+00,-0.86,-0.62
1.3854e+00,-0.88,-1.16
1.3858e+00,-0.84,-0.66
1.3862e+00,-0.92,-1.16
1.3866e+00,-0.94,-0.64
1.3870e+00,-0.8,-1.16
1.3873e+00,-0.84,-0.66
1.3877e+00,-1.04,-1.2
1.3881e+00,-0.98,-0.66
1.3885e+00,-0.8,-1.14
1.3889e+00,-0.94,-0.66
1.3893e+00,-0.98,-1.18
1.3896e+00,-1,-0.68
1.3900e+00,-0.96,-1.14
1.3904e+00,-0.9,-0.66
1.3908e+00,-0.86,-1.24
1.3912e+00,-0.8,-0.66
1.3916e+00,-1.02,-1.16
1.3920e+00,-0.96,-0.62
1.3923e+00,-0.84,-1.16
1.3927e+00,-0.9,-0.6
1.3931e+00,-0.9,-1.16
1.3935e+00,-0.92,-0.68
1.3939e+00,-0.92,-1.2
1.3943e+00,-0.84,-0.66
1.3946e+00,-0.88,-1.12
1.3950e+00,-1.04,-0.64
1.3954e+00,-0.92,-1.18
1.3958e+00,-0.88,-0.66
1.3962e+00,-1,-1.2
1.3966e+00,-0.96,-0.62
1.3969e+00,-1.04,-1.14
1.3973e+00,-0.98,-0.66
1.3977e+00,-0.92,-1.14
1.3981e+00,-0.86,-0.68
1.3985e+00,-0.9,-1.16
1.3989e+00,-0.94,-0.68
1.3992e+00,-0.94,-1.18
1.3996e+00,-0.9,-0.66
1.4000e+00,-0.84,-1.18
1.4004e+00,-0.78,-0.58
1.4008e+00,-0.9,-1.18
1.4012e+00,-0.88,-0.68
1.4016e+00,-0.96,-1.2
1.4019e+00,-0.94,-0.66
1.4023e+00,-0.78,-1.12
1.4027e+00,-0.78,-0.64
1.4031e+00,-1,-1.16
1.4035e+00,-0.98,-0.64
1.4039e+00,-0.92,-1.12
1.4042e+00,-0.94,-0.68
1.4046e+00,-0.86,-1.16
1.4050e+00,-0.94,-0.62
1.4054e+00,-0.94,-1.14
1.4058e+00,-1,-0.64
1.4062e+00,-0.92,-1.18
1.4065e+00,-0.92,-0.64
1.4069e+00,-1.04,-1.24
1.4073e+00,-0.98,-0.66
1.4077e+00,-0.96,-1.18
1.4081e+00,-1.02,-0.68
1.4085e+00,-0.88,-1.18
1.4088e+00,-0.94,-0.62
1.4092e+00,-0.9,-1.18
1.4096e+00,-0.96,-0.64
1.4100e+00,-0.82,-1.14
1.4104e+00,-0.84,-0.64
1.4108e+00,-0.96,-1.2
1.4112e+00,-0.84,-0.66
1.4115e+00,-0.9,-1.14
1.4119e+00,-0.84,-0.66
1.4123e+00,-0.86,-1.14
1.4127e+00,-0.92,-0.64
1.4131e+00,-0.98,-1.18
1.4135e+00,-0.88,-0.66
1.4138e+00,-0.86,-1.16
1.4142e+00,-0.96,-0.64
1.4146e+00,-0.94,-1.18
1.4150e+00,-0.94,-0.66
1.4154e+00,-1,-1.16
1.4158e+00,-0.78,-0.68
1.4161e+00,-1.1,-1.22
1.4165e+00,-0.96,-0.7
1.4169e+00,-0.84,-1.18
1.4173e+00,-0.92,-0.66
1.4177e+00,-1,-1.18
1.4181e+00,-0.9,-0.64
1.4185e+00,-0.86,-1.14
1.4188e+00,-0.88,-0.68
1.4192e+00,-0.88,-1.2
1.4196e+00,-0.9,-0.66
1.4200e+00,-0.88,-1.16
1.4204e+00,-0.82,-0.58
1.4208e+00,-0.94,-1.14
1.4211e+00,-0.86,-0.68
1.4215e+00,-0.96,-1.16
1.4219e+00,-0.82,-0.66
1.4223e+00,-0.8,-1.14
1.4227e+00,-1,-0.68
1.4231e+00,-1,-1.2
1.4234e+00,-0.84,-0.68
1.4238e+00,-0.92,-1.16
1.4242e+00,-0.86,-0.68
1.4246e+00,-0.84,-1.18
1.4250e+00,-0.96,-0.68
1.4254e+00,-0.94,-1.14
1.4257e+00,-0.82,-0.64
1.4261e+00,-0.9,-1.16
1.4265e+00,-0.9,-0.66
1.4269e+00,-0.94,-1.16
1.4273e+00,-1.04,-0.6
1.4277e+00,-0.84,-1.14
1.4281e+00,-0.94,-0.62
1.4284e+00,-0.98,-1.18
1.4288e+00,-0.9,-0.68
1.4292e+00,-0.84,-1.14
1.4296e+00,-0.9,-0.7
1.4300e+00,-0.9,-1.16
1.4304e+00,-0.84,-0.66
1.4307e+00,-0.84,-1.16
1.4311e+00,-0.96,-0.68
1.4315e+00,-1.04,-1.2
1.4319e+00,-0.94,-0.64
1.4323e+00,-0.86,-1.2
1.4327e+00,-0.96,-0.64
1.4330e+00,-0.9,-1.14
1.4334e+00,-0.86,-0.7
1.4338e+00,-0.78,-1.2
1.4342e+00,-0.88,-0.68
1.4346e+00,-0.98,-1.18
1.4350e+00,-1.02,-0.6
1.4353e+00,-0.96,-1.22
1.4357e+00,-0.86,-0.64
1.4361e+00,-0.92,-1.14
1.4365e+00,-1.04,-0.64
1.4369e+00,-0.96,-1.14
1.4373e+00,-0.82,-0.64
1.4377e+00,-0.92,-1.14
1.4380e+00,-0.9,-0.66
1.4384e+00,-1.04,-1.2
1.4388e+00,-0.98,-0.66
1.4392e+00,-0.86,-1.14
1.4396e+00,-0.94,-0.7
1.4400e+00,-0.92,-1.2
1.4403e+00,-0.88,-0.64
1.4407e+00,-0.94,-1.18
1.4411e+00,-0.9,-0.72
1.4415e+00,-0.82,-1.12
1.4419e+00,-0.86,-0.64
1.4423e+00,-0.86,-1.18
1.4426e+00,-1.06,-0.62
1.4430e+00,-0.84,-1.16
1.4434e+00,-1.02,-0.64
1.4438e+00,-0.84,-1.12
1.4442e+00,-0.98,-0.64
1.4446e+00,-1.02,-1.18
1.4449e+00,-0.92,-0.64
1.4453e+00,-0.8,-1.12
1.4457e+00,-0.84,-0.64
1.4461e+00,-0.94,-1.2
1.4465e+00,-0.94,-0.68
1.4469e+00,-0.86,-1.16
1.4473e+00,-0.86,-0.66
1.4476e+00,-0.9,-1.14
1.4480e+00,-1.04,-0.7
1.4484e+00,-0.82,-1.22
1.4488e+00,-0.98,-0.64
1.4492e+00,-0.88,-1.18
1.4496e+00,-0.84,-0.66
1.4499e+00,-0.86,-1.18
1.4503e+00,-0.82,-0.66
1.4507e+00,-1.04,-1.2
1.4511e+00,-0.9,-0.66
1.4515e+00,-0.88,-1.18
1.4519e+00,-0.82,-0.62
1.4522e+00,-0.96,-1.18
1.4526e+00,-0.92,-0.68
1.4530e+00,-0.82,-1.2
1.4534e+00,-0.8,-0.68
1.4538e+00,-0.92,-1.16
1.4542e+00,-0.88,-0.66
1.4545e+00,-0.98,-1.16
1.4549e+00,-1.06,-0.62
1.4553e+00,-0.92,-1.24
1.4557e+00,-1.04,-0.64
1.4561e+00,-0.9,-1.14
1.4565e+00,-0.9,-0.68
1.4569e+00,-0.9,-1.18
1.4572e+00,-0.82,-0.7
1.4576e+00,-0.9,-1.18
1.4580e+00,-1,-0.68
1.4584e+00,-0.98,-1.16
1.4588e+00,-0.88,-0.64
1.4592e+00,-0.94,-1.18
1.4595e+00,-0.78,-0.64
1.4599e+00,-0.92,-1.16
1.4603e+00,-1.04,-0.66
1.4607e+00,-0.84,-1.14
1.4611e+00,-0.98,-0.66
1.4615e+00,-0.76,-1.18
1.4618e+00,-0.88,-0.7
1.4622e+00,-0.9,-1.14
1.4626e+00,-0.94,-0.66
1.4630e+00,-0.8,-1.18
1.4634e+00,-0.78,-0.66
1.4638e+00,-0.94,-1.14
1.4641e+00,-0.92,-0.68
1.4645e+00,-0.96,-1.16
1.4649e+00,-0.88,-0.66
1.4653e+00,-0.78,-1.16
1.4657e+00,-0.92,-0.66
1.4661e+00,-0.96,-1.14
1.4665e+00,-0.8,-0.68
1.4668e+00,-0.88,-1.18
1.4672e+00,-0.9,-0.66
1.4676e+00,-0.82,-1.16
1.4680e+00,-0.9,-0.68
1.4684e+00,-0.94,-1.18
1.4688e+00,-0.88,-0.62
1.4691e+00,-0.86,-1.16
1.4695e+00,-0.8,-0.7
1.4699e+00,-0.8,-1.14
1.4703e+00,-0.86,-0.68
1.4707e+00,-0.88,-1.18
1.4711e+00,-0.96,-0.62
1.4714e+00,-0.82,-1.14
1.4718e+00,-1.02,-0.64
1.4722e+00,-1.02,-1.16
1.4726e+00,-0.92,-0.64
1.4730e+00,-0.9,-1.2
1.4734e+00,-0.86,-0.64
1.4737e+00,-0.92,-1.2
1.4741e+00,-1.1,-0.64
1.4745e+00,-0.9,-1.18
1.4749e+00,-0.66,-0.62
1.4753e+00,-0.88,-1.14
1.4757e+00,-1,-0.68
1.4761e+00,-0.94,-1.22
1.4764e+00,-0.82,-0.68
1.4768e+00,-0.88,-1.16
1.4772e+00,-0.84,-0.64
1.4776e+00,-0.86,-1.2
1.4780e+00,-0.8,-0.66
1.4784e+00,-0.94,-1.14
1.4787e+00,-0.82,-0.62
1.4791e+00,-0.98,-1.18
1.4795e+00,-0.92,-0.62
1.4799e+00,-0.96,-1.18
1.4803e+00,-0.94,-0.64
1.4807e+00,-0.82,-1.18
1.4810e+00,-0.82,-0.68
1.4814e+00,-1.02,-1.16
1.4818e+00,-0.96,-0.66
1.4822e+00,-0.84,-1.18
1.4826e+00,-0.82,-0.7
1.4830e+00,-0.84,-1.18
1.4834e+00,-0.92,-0.64
1.4837e+00,-0.94,-1.16
1.4841e+00,-0.88,-0.66
1.4845e+00,-0.88,-1.14
1.4849e+00,-0.9,-0.62
1.4853e+00,-0.8,-1.18
1.4857e+00,-0.9,-0.64
1.4860e+00,-0.96,-1.16
1.4864e+00,-0.88,-0.64
1.4868e+00,-0.88,-1.12
1.4872e+00,-0.84,-0.64
1.4876e+00,-1.12,-1.16
1.4880e+00,-0.9,-0.68
1.4883e+00,-0.98,-1.18
1.4887e+00,-0.94,-0.62
1.4891e+00,-0.82,-1.2
1.4895e+00,-0.84,-0.64
1.4899e+00,-0.98,-1.14
1.4903e+00,-0.84,-0.68
1.4906e+00,-0.9,-1.14
1.4910e+00,-0.98,-0.68
1.4914e+00,-0.86,-1.14
1.4918e+00,-0.94,-0.66
1.4922e+00,-0.92,-1.16
1.4926e+00,-0.88,-0.66
1.4930e+00,-1,-1.18
1.4933e+00,-0.96,-0.7
1.4937e+00,-0.92,-1.14
1.4941e+00,-0.92,-0.66
1.4945e+00,-0.68,-1.18
1.4949e+00,-0.92,-0.62
1.4953e+00,-0.98,-1.14
1.4956e+00,-0.8,-0.64
1.4960e+00,-0.92,-1.18
1.4964e+00,-0.94,-0.68
1.4968e+00,-0.88,-1.18
1.4972e+00,-0.98,-0.66
1.4976e+00,-0.96,-1.18
1.4979e+00,-1.04,-0.62
1.4983e+00,-0.8,-1.18
1.4987e+00,-1.02,-0.62
1.4991e+00,-1.04,-1.18
1.4995e+00,-1,-0.68
1.4999e+00,-0.94,-1.18
1.5002e+00,-0.86,-0.66
1.5006e+00,-0.94,-1.24
1.5010e+00,-0.96,-0.62
1.5014e+00,-0.82,-1.2
1.5018e+00,-1.02,-0.68
1.5022e+00,-0.94,-1.2
1.5026e+00,-0.92,-0.64
1.5029e+00,-0.84,-1.2
1.5033e+00,-1.12,-0.6
1.5037e+00,-0.92,-1.16
1.5041e+00,-0.82,-0.64
1.5045e+00,-0.72,-1.18
1.5049e+00,-0.98,-0.68
1.5052e+00,-0.94,-1.16
1.5056e+00,-0.86,-0.66
1.5060e+00,-0.96,-1.2
1.5064e+00,-0.9,-0.7
1.5068e+00,-0.96,-1.18
1.5072e+00,-1.02,-0.68
1.5075e+00,-0.86,-1.16
1.5079e+00,-0.92,-0.66
1.5083e+00,-0.78,-1.18
1.5087e+00,-0.84,-0.66
1.5091e+00,-0.88,-1.18
1.5095e+00,-0.96,-0.68
1.5098e+00,-0.94,-1.14
1.5102e+00,-0.8,-0.66
1.5106e+00,-0.84,-1.2
1.5110e+00,-0.98,-0.62
1.5114e+00,-0.88,-1.12
1.5118e+00,-0.98,-0.68
1.5122e+00,-0.96,-1.18
1.5125e+00,-0.94,-0.68
1.5129e+00,-0.86,-1.18
1.5133e+00,-0.9,-0.68
1.5137e+00,-0.96,-1.18
1.5141e+00,-0.86,-0.62
1.5145e+00,-0.82,-1.22
1.5148e+00,-0.88,-0.66
1.5152e+00,-0.98,-1.14
1.5156e+00,-0.96,-0.72
1.5160e+00,-0.92,-1.2
1.5164e+00,-0.96,-0.68
1.5168e+00,-0.92,-1.14
1.5171e+00,-0.86,-0.68
1.5175e+00,-1.02,-1.2
1.5179e+00,-0.96,-0.66
1.5183e+00,-0.8,-1.18
1.5187e+00,-0.92,-0.66
1.5191e+00,-1,-1.16
1.5194e+00,-0.86,-0.68
1.5198e+00,-0.82,-1.18
1.5202e+00,-0.88,-0.64
1.5206e+00,-0.86,-1.16
1.5210e+00,-0.9,-0.64
1.5214e+00,-0.86,-1.14
1.5218e+00,-0.86,-0.68
1.5221e+00,-0.88,-1.16
1.5225e+00,-0.92,-0.7
1.5229e+00,-0.94,-1.12
1.5233e+00,-0.94,-0.62
1.5237e+00,-0.98,-1.18
1.5241e+00,-0.92,-0.68
1.5244e+00,-0.98,-1.2
1.5248e+00,-1.02,-0.68
1.5252e+00,-1.1,-1.2
1.5256e+00,-0.86,-0.62
1.5260e+00,-0.98,-1.14
1.5264e+00,-0.98,-0.66
1.5267e+00,-0.82,-1.18
1.5271e+00,-0.88,-0.62
1.5275e+00,-1.02,-1.2
1.5279e+00,-0.94,-0.66
1.5283e+00,-0.86,-1.18
1.5287e+00,-0.88,-0.66
1.5290e+00,-0.82,-1.18
1.5294e+00,-1.08,-0.66
1.5298e+00,-0.96,-1.18
1.5302e+00,-0.88,-0.66
1.5306e+00,-0.96,-1.14
1.5310e+00,-0.98,-0.7
1.5314e+00,-0.9,-1.16
1.5317e+00,-0.8,-0.68
1.5321e+00,-0.92,-1.18
1.5325e+00,-0.86,-0.68
1.5329e+00,-0.88,-1.18
1.5333e+00,-0.92,-0.68
1.5337e+00,-0.88,-1.18
1.5340e+00,-0.9,-0.66
1.5344e+00,-0.86,-1.12
1.5348e+00,-1.08,-0.68
1.5352e+00,-0.84,-1.18
1.5356e+00,-0.84,-0.7
1.5360e+00,-0.84,-1.12
1.5363e+00,-0.78,-0.7
1.5367e+00,-0.94,-1.18
1.5371e+00,-0.82,-0.68
1.5375e+00,-0.86,-1.14
1.5379e+00,-0.88,-0.64
1.5383e+00,-0.84,-1.18
1.5387e+00,-0.96,-0.66
1.5390e+00,-0.86,-1.2
1.5394e+00,-0.84,-0.62
1.5398e+00,-0.84,-1.22
1.5402e+00,-1.02,-0.68
1.5406e+00,-1.02,-1.24
1.5410e+00,-1,-0.6
1.5413e+00,-0.9,-1.18
1.5417e+00,-0.9,-0.68
1.5421e+00,-0.88,-1.14
1.5425e+00,-0.96,-0.66
1.5429e+00,-0.9,-1.2
1.5433e+00,-0.7,-0.64
1.5436e+00,-0.94,-1.22
1.5440e+00,-0.82,-0.7
1.5444e+00,-0.9,-1.18
1.5448e+00,-0.86,-0.68
1.5452e+00,-0.94,-1.22
1.5456e+00,-0.82,-0.68
1.5459e+00,-0.86,-1.2
1.5463e+00,-1,-0.64
1.5467e+00,-0.92,-1.16
1.5471e+00,-1,-0.66
1.5475e+00,-0.86,-1.18
1.5479e+00,-0.76,-0.7
1.5483e+00,-1,-1.18
1.5486e+00,-1.12,-0.68
1.5490e+00,-0.88,-1.2
1.5494e+00,-0.92,-0.66
1.5498e+00,-0.82,-1.22
1.5502e+00,-0.9,-0.7
1.5506e+00,-0.94,-1.2
1.5509e+00,-0.76,-0.64
1.5513e+00,-0.84,-1.2
1.5517e+00,-1,-0.6
1.5521e+00,-0.86,-1.18
1.5525e+00,-0.92,-0.7
1.5529e+00,-0.96,-1.14
1.5532e+00,-0.8,-0.64
1.5536e+00,-0.94,-1.16
1.5540e+00,-0.9,-0.66
1.5544e+00,-0.92,-1.16
1.5548e+00,-0.94,-0.62
1.5552e+00,-0.84,-1.16
1.5555e+00,-0.9,-0.66
1.5559e+00,-0.82,-1.14
1.5563e+00,-1,-0.68
1.5567e+00,-0.92,-1.22
1.5571e+00,-0.92,-0.66
1.5575e+00,-0.88,-1.18
1.5579e+00,-1,-0.7
1.5582e+00,-0.9,-1.16
1.5586e+00,-1.06,-0.62
1.5590e+00,-1,-1.14
1.5594e+00,-0.84,-0.68
1.5598e+00,-0.88,-1.14
1.5602e+00,-0.92,-0.66
1.5605e+00,-1.04,-1.16
1.5609e+00,-0.9,-0.62
1.5613e+00,-1.02,-1.24
1.5617e+00,-0.88,-0.6
1.5621e+00,-0.94,-1.14
1.5625e+00,-0.96,-0.6
1.5628e+00,-1,-1.2
1.5632e+00,-0.92,-0.62
1.5636e+00,-1,-1.2
1.5640e+00,-0.96,-0.66
1.5644e+00,-0.96,-1.18
1.5648e+00,-0.82,-0.68
1.5651e+00,-0.9,-1.18
1.5655e+00,-0.92,-0.64
1.5659e+00,-0.96,-1.16
1.5663e+00,-1.06,-0.68
1.5667e+00,-0.84,-1.18
1.5671e+00,-0.76,-0.68
1.5675e+00,-0.92,-1.14
1.5678e+00,-0.92,-0.66
1.5682e+00,-1,-1.24
1.5686e+00,-0.9,-0.66
1.5690e+00,-0.76,-1.16
1.5694e+00,-0.86,-0.66
1.5698e+00,-1,-1.14
1.5701e+00,-0.92,-0.66
1.5705e+00,-0.98,-1.18
1.5709e+00,-0.84,-0.62
1.5713e+00,-1,-1.18
1.5717e+00,-0.98,-0.64
1.5721e+00,-0.92,-1.18
1.5724e+00,-0.84,-0.66
1.5728e+00,-0.98,-1.24
1.5732e+00,-0.8,-0.7
1.5736e+00,-0.82,-1.22
1.5740e+00,-0.94,-0.66
1.5744e+00,-0.82,-1.16
1.5747e+00,-0.84,-0.64
1.5751e+00,-0.76,-1.16
1.5755e+00,-0.96,-0.66
1.5759e+00,-0.96,-1.16
1.5763e+00,-0.96,-0.64
1.5767e+00,-0.94,-1.18
1.5771e+00,-0.92,-0.64
1.5774e+00,-0.94,-1.14
1.5778e+00,-0.9,-0.64
1.5782e+00,-0.96,-1.14
1.5786e+00,-0.88,-0.66
1.5790e+00,-0.84,-1.12
1.5794e+00,-0.94,-0.68
1.5797e+00,-0.96,-1.16
1.5801e+00,-0.96,-0.62
1.5805e+00,-1,-1.14
1.5809e+00,-0.82,-0.66
1.5813e+00,-1.02,-1.18
1.5817e+00,-1.02,-0.68
1.5820e+00,-0.9,-1.16
1.5824e+00,-0.86,-0.7
1.5828e+00,-1.02,-1.16
1.5832e+00,-0.84,-0.64
1.5836e+00,-0.9,-1.18
1.5840e+00,-0.86,-0.62
1.5843e+00,-0.8,-1.18
1.5847e+00,-0.92,-0.7
1.5851e+00,-0.98,-1.16
1.5855e+00,-0.84,-0.64
1.5859e+00,-0.88,-1.16
1.5863e+00,-0.98,-0.66
1.5867e+00,-0.86,-1.14
1.5870e+00,-0.78,-0.64
1.5874e+00,-0.9,-1.26
1.5878e+00,-0.9,-0.66
1.5882e+00,-0.84,-1.18
1.5886e+00,-0.94,-0.7
1.5890e+00,-0.86,-1.16
1.5893e+00,-0.94,-0.68
1.5897e+00,-0.96,-1.18
1.5901e+00,-0.96,-0.68
1.5905e+00,-0.8,-1.24
1.5909e+00,-0.88,-0.7
1.5913e+00,-0.96,-1.14
1.5916e+00,-1.08,-0.68
1.5920e+00,-1.02,-1.16
1.5924e+00,-0.9,-0.66
1.5928e+00,-0.92,-1.16
1.5932e+00,-0.86,-0.7
1.5936e+00,-0.92,-1.16
1.5939e+00,-0.92,-0.68
1.5943e+00,-0.98,-1.24
1.5947e+00,-0.96,-0.66
1.5951e+00,-0.84,-1.14
1.5955e+00,-1.02,-0.7
1.5959e+00,-1,-1.16
1.5963e+00,-0.86,-0.68
1.5966e+00,-0.92,-1.18
1.5970e+00,-0.88,-0.66
1.5974e+00,-0.96,-1.18
1.5978e+00,-0.9,-0.68
1.5982e+00,-0.94,-1.22
1.5986e+00,-0.92,-0.68
1.5989e+00,-0.98,-1.2
1.5993e+00,-0.9,-0.66
1.5997e+00,-0.92,-1.14
1.6001e+00,-0.92,-0.7
1.6005e+00,-0.92,-1.14
1.6009e+00,-0.9,-0.66
1.6012e+00,-0.82,-1.16
1.6016e+00,-0.86,-0.62
1.6020e+00,-0.88,-1.14
1.6024e+00,-0.84,-0.68
1.6028e+00,-0.88,-1.14
1.6032e+00,-0.8,-0.64
1.6036e+00,-0.94,-1.2
1.6039e+00,-0.88,-0.6
1.6043e+00,-0.88,-1.18
1.6047e+00,-0.86,-0.64
1.6051e+00,-0.86,-1.14
1.6055e+00,-0.98,-0.64
1.6059e+00,-0.9,-1.2
1.6062e+00,-0.84,-0.66
1.6066e+00,-0.86,-1.18
1.6070e+00,-0.92,-0.7
1.6074e+00,-1,-1.16
1.6078e+00,-1,-0.68
1.6082e+00,-0.9,-1.14
1.6085e+00,-0.78,-0.68
1.6089e+00,-0.9,-1.18
1.6093e+00,-0.88,-0.66
1.6097e+00,-0.92,-1.2
1.6101e+00,-0.9,-0.66
1.6105e+00,-0.92,-1.14
1.6108e+00,-1.02,-0.66
1.6112e+00,-1,-1.16
1.6116e+00,-0.76,-0.66
1.6120e+00,-0.94,-1.16
1.6124e+00,-0.8,-0.58
1.6128e+00,-0.9,-1.14
1.6132e+00,-0.9,-0.66
1.6135e+00,-1,-1.18
1.6139e+00,-0.88,-0.66
1.6143e+00,-0.9,-1.16
1.6147e+00,-0.72,-0.68
1.6151e+00,-0.82,-1.2
1.6155e+00,-1.02,-0.7
1.6158e+00,-0.8,-1.16
1.6162e+00,-0.9,-0.66
1.6166e+00,-1.08,-1.14
1.6170e+00,-0.94,-0.66
1.6174e+00,-1,-1.18
1.6178e+00,-0.92,-0.68
1.6181e+00,-0.88,-1.14
1.6185e+00,-0.82,-0.64
1.6189e+00,-0.88,-1.18
1.6193e+00,-1.08,-0.64
1.6197e+00,-0.84,-1.16
1.6201e+00,-1,-0.68
1.6204e+00,-0.94,-1.12
1.6208e+00,-0.86,-0.66
1.6212e+00,-0.98,-1.16
1.6216e+00,-0.92,-0.68
1.6220e+00,-0.74,-1.16
1.6224e+00,-0.94,-0.64
1.6228e+00,-0.92,-1.2
1.6231e+00,-0.86,-0.68
1.6235e+00,-0.92,-1.22
1.6239e+00,-1,-0.62
1.6243e+00,-0.82,-1.14
1.6247e+00,-0.92,-0.66
1.6251e+00,-0.94,-1.12
1.6254e+00,-1.02,-0.62
1.6258e+00,-0.98,-1.18
1.6262e+00,-0.9,-0.66
1.6266e+00,-1.04,-1.16
1.6270e+00,-0.96,-0.64
1.6274e+00,-0.84,-1.18
1.6277e+00,-0.94,-0.68
1.6281e+00,-0.92,-1.16
1.6285e+00,-0.86,-0.66
1.6289e+00,-0.92,-1.18
1.6293e+00,-0.92,-0.66
1.6297e+00,-0.8,-1.16
1.6300e+00,-1.04,-0.68
1.6304e+00,-0.92,-1.14

