Model,DPO2002B
Firmware Version,1.52

Point Format,Y,
Horizontal Units,S,
Horizontal Scale,0.01,
Sample Interval,1.92012e-05,
Filter Frequency,7e+07,
Record Length,5208,
Gating,0.0% to 100.0%,
Probe Attenuation,10,
Vertical Units,V,
Vertical Offset,0.6,
Vertical Scale,0.5,
Label,,
TIME,CH1,CH1 Peak Detect
-1.024e-02,-1.18,-1.26
-1.022e-02,-0.98,-0.8
-1.020e-02,-1.04,-1.1
-1.018e-02,-0.9,-0.78
-1.016e-02,-0.92,-1.08
-1.014e-02,-0.86,-0.8
-1.012e-02,-0.98,-1.18
-1.011e-02,-1.12,-0.74
-1.009e-02,-0.8,-1.14
-1.007e-02,-0.98,-0.76
-1.005e-02,-0.92,-1.16
-1.003e-02,-0.92,-0.84
-1.001e-02,-1.06,-1.22
-9.990e-03,-1.16,-0.86
-9.971e-03,-1.04,-1.08
-9.952e-03,-0.88,-0.78
-9.933e-03,-0.94,-1.12
-9.914e-03,-1.02,-0.82
-9.894e-03,-1,-1.2
-9.875e-03,-0.9,-0.82
-9.856e-03,-1.08,-1.2
-9.837e-03,-0.96,-0.84
-9.818e-03,-0.92,-1.08
-9.798e-03,-0.98,-0.74
-9.779e-03,-1.02,-1.12
-9.760e-03,-1.06,-0.74
-9.741e-03,-0.88,-1.1
-9.722e-03,-1.08,-0.8
-9.702e-03,-1,-1.24
-9.683e-03,-1.02,-0.84
-9.664e-03,-0.96,-1.2
-9.645e-03,-1.1,-0.76
-9.626e-03,-0.88,-1.14
-9.606e-03,-0.96,-0.7
-9.587e-03,-0.98,-1.08
-9.568e-03,-1.02,-0.82
-9.549e-03,-0.92,-1.08
-9.530e-03,-0.94,-0.74
-9.510e-03,-0.82,-1.16
-9.491e-03,-0.88,-0.66
-9.472e-03,-1.12,-1.2
-9.453e-03,-0.92,-0.82
-9.434e-03,-0.98,-1.2
-9.414e-03,-1.02,-0.86
-9.395e-03,-1.06,-1.16
-9.376e-03,-1.12,-0.8
-9.357e-03,-0.88,-1.14
-9.338e-03,-0.96,-0.82
-9.318e-03,-1.08,-1.12
-9.299e-03,-0.86,-0.8
-9.280e-03,-1.04,-1.14
-9.261e-03,-0.96,-0.9
-9.242e-03,-0.96,-1.06
-9.222e-03,-0.94,-0.8
-9.203e-03,-0.92,-1.18
-9.184e-03,-1.06,-0.86
-9.165e-03,-1.02,-1.16
-9.146e-03,-0.88,-0.8
-9.126e-03,-1.04,-1.1
-9.107e-03,-1,-0.8
-9.088e-03,-0.96,-1.16
-9.069e-03,-1.02,-0.78
-9.050e-03,-0.92,-1.22
-9.030e-03,-1.16,-0.82
-9.011e-03,-0.96,-1.12
-8.992e-03,-1.06,-0.76
-8.973e-03,-1.04,-1.1
-8.954e-03,-0.92,-0.76
-8.934e-03,-0.96,-1.16
-8.915e-03,-0.96,-0.82
-8.896e-03,-0.94,-1.18
-8.877e-03,-1.12,-0.8
-8.858e-03,-0.84,-1.22
-8.838e-03,-1.06,-0.7
-8.819e-03,-0.94,-1.22
-8.800e-03,-1,-0.86
-8.781e-03,-1.12,-1.16
-8.762e-03,-0.96,-0.82
-8.742e-03,-1.06,-1.12
-8.723e-03,-0.98,-0.84
-8.704e-03,-1.04,-1.22
-8.685e-03,-0.94,-0.82
-8.665e-03,-1,-1.12
-8.646e-03,-0.96,-0.78
-8.627e-03,-1.04,-1.12
-8.608e-03,-0.92,-0.84
-8.589e-03,-1.06,-1.18
-8.569e-03,-1.06,-0.94
-8.550e-03,-1.02,-1.2
-8.531e-03,-1.1,-0.9
-8.512e-03,-1.14,-1.22
-8.493e-03,-1,-0.9
-8.473e-03,-0.98,-1.16
-8.454e-03,-1.06,-0.78
-8.435e-03,-1.06,-1.16
-8.416e-03,-1.02,-0.9
-8.397e-03,-0.98,-1.1
-8.377e-03,-0.96,-0.8
-8.358e-03,-0.9,-1.12
-8.339e-03,-0.98,-0.78
-8.320e-03,-0.88,-1.04
-8.301e-03,-0.94,-0.8
-8.281e-03,-0.9,-1.08
-8.262e-03,-0.94,-0.8
-8.243e-03,-1,-1.14
-8.224e-03,-0.96,-0.86
-8.205e-03,-0.96,-1.08
-8.185e-03,-1.02,-0.8
-8.166e-03,-0.86,-1.12
-8.147e-03,-1.02,-0.78
-8.128e-03,-0.84,-1.16
-8.109e-03,-0.96,-0.78
-8.089e-03,-1.02,-1.28
-8.070e-03,-1.04,-0.9
-8.051e-03,-1.2,-1.28
-8.032e-03,-0.9,-0.86
-8.013e-03,-0.9,-1.08
-7.993e-03,-1.04,-0.78
-7.974e-03,-0.94,-1.08
-7.955e-03,-1.02,-0.82
-7.936e-03,-1.04,-1.1
-7.917e-03,-0.9,-0.78
-7.897e-03,-0.96,-1.14
-7.878e-03,-1.04,-0.86
-7.859e-03,-0.96,-1.14
-7.840e-03,-1.02,-0.8
-7.821e-03,-0.84,-1.1
-7.801e-03,-1.08,-0.8
-7.782e-03,-0.96,-1.14
-7.763e-03,-1.02,-0.8
-7.744e-03,-1,-1.16
-7.725e-03,-1.04,-0.9
-7.705e-03,-1.02,-1.14
-7.686e-03,-0.94,-0.84
-7.667e-03,-0.98,-1.2
-7.648e-03,-0.9,-0.8
-7.629e-03,-0.86,-1.16
-7.609e-03,-1,-0.76
-7.590e-03,-0.98,-1.08
-7.571e-03,-0.88,-0.78
-7.552e-03,-1.02,-1.24
-7.533e-03,-1.02,-0.86
-7.513e-03,-1.06,-1.12
-7.494e-03,-0.98,-0.74
-7.475e-03,-0.8,-1.12
-7.456e-03,-0.96,-0.72
-7.437e-03,-0.98,-1.1
-7.417e-03,-0.96,-0.72
-7.398e-03,-1.04,-1.16
-7.379e-03,-0.96,-0.82
-7.360e-03,-1.02,-1.12
-7.341e-03,-0.94,-0.8
-7.321e-03,-0.98,-1.18
-7.302e-03,-1.02,-0.76
-7.283e-03,-0.78,-1.08
-7.264e-03,-0.98,-0.74
-7.245e-03,-1,-1.12
-7.225e-03,-0.96,-0.78
-7.206e-03,-1.08,-1.14
-7.187e-03,-0.96,-0.84
-7.168e-03,-1.04,-1.1
-7.149e-03,-0.9,-0.74
-7.129e-03,-0.86,-1.1
-7.110e-03,-0.94,-0.8
-7.091e-03,-0.92,-1.3
-7.072e-03,-1.04,-0.82
-7.053e-03,-1.16,-1.2
-7.033e-03,-1,-0.88
-7.014e-03,-1.02,-1.14
-6.995e-03,-1.06,-0.82
-6.976e-03,-0.88,-1.2
-6.957e-03,-0.94,-0.78
-6.937e-03,-0.98,-1.16
-6.918e-03,-0.92,-0.8
-6.899e-03,-0.94,-1.08
-6.880e-03,-1.02,-0.78
-6.861e-03,-1.08,-1.16
-6.841e-03,-1.04,-0.82
-6.822e-03,-0.96,-1.08
-6.803e-03,-0.9,-0.82
-6.784e-03,-0.96,-1.1
-6.765e-03,-0.92,-0.82
-6.745e-03,-0.9,-1.12
-6.726e-03,-0.96,-0.8
-6.707e-03,-0.9,-1.16
-6.688e-03,-1.02,-0.74
-6.669e-03,-1.1,-1.16
-6.649e-03,-0.98,-0.86
-6.630e-03,-1.04,-1.18
-6.611e-03,-0.92,-0.72
-6.592e-03,-0.82,-1.18
-6.573e-03,-0.96,-0.8
-6.553e-03,-0.9,-1.18
-6.534e-03,-1.08,-0.82
-6.515e-03,-0.96,-1.16
-6.496e-03,-0.94,-0.86
-6.477e-03,-0.98,-1.16
-6.457e-03,-0.96,-0.84
-6.438e-03,-0.86,-1.18
-6.419e-03,-0.98,-0.8
-6.400e-03,-0.92,-1.14
-6.381e-03,-1,-0.86
-6.361e-03,-1.02,-1.2
-6.342e-03,-0.92,-0.86
-6.323e-03,-1,-1.12
-6.304e-03,-1,-0.76
-6.285e-03,-0.88,-1.06
-6.265e-03,-0.86,-0.7
-6.246e-03,-0.92,-1.22
-6.227e-03,-1.06,-0.88
-6.208e-03,-1.08,-1.16
-6.189e-03,-0.94,-0.74
-6.169e-03,-0.9,-1.14
-6.150e-03,-0.8,-0.78
-6.131e-03,-0.92,-1.14
-6.112e-03,-0.96,-0.82
-6.093e-03,-0.94,-1.2
-6.073e-03,-0.92,-0.84
-6.054e-03,-1,-1.16
-6.035e-03,-1.06,-0.82
-6.016e-03,-0.94,-1.12
-5.997e-03,-1,-0.86
-5.977e-03,-1.08,-1.24
-5.958e-03,-0.92,-0.88
-5.939e-03,-1,-1.14
-5.920e-03,-1.02,-0.74
-5.901e-03,-0.82,-1.1
-5.881e-03,-0.84,-0.74
-5.862e-03,-0.84,-1.16
-5.843e-03,-0.98,-0.78
-5.824e-03,-1.06,-1.12
-5.805e-03,-0.84,-0.78
-5.785e-03,-0.98,-1.1
-5.766e-03,-1,-0.82
-5.747e-03,-0.92,-1.18
-5.728e-03,-0.98,-0.84
-5.709e-03,-0.92,-1.1
-5.689e-03,-0.94,-0.7
-5.670e-03,-0.94,-1.16
-5.651e-03,-0.92,-0.76
-5.632e-03,-0.9,-1.16
-5.613e-03,-1,-0.82
-5.593e-03,-0.96,-1.16
-5.574e-03,-0.92,-0.78
-5.555e-03,-1.04,-1.16
-5.536e-03,-0.9,-0.82
-5.516e-03,-1.02,-1.14
-5.497e-03,-0.98,-0.9
-5.478e-03,-0.98,-1.14
-5.459e-03,-0.96,-0.86
-5.440e-03,-1.06,-1.22
-5.420e-03,-0.92,-0.84
-5.401e-03,-0.92,-1.18
-5.382e-03,-0.98,-0.86
-5.363e-03,-0.92,-1.1
-5.344e-03,-1.06,-0.84
-5.324e-03,-1.02,-1.14
-5.305e-03,-0.98,-0.74
-5.286e-03,-1.06,-1.16
-5.267e-03,-0.92,-0.82
-5.248e-03,-1.08,-1.14
-5.228e-03,-1,-0.92
-5.209e-03,-1.02,-1.14
-5.190e-03,-0.9,-0.8
-5.171e-03,-1.02,-1.12
-5.152e-03,-0.94,-0.8
-5.132e-03,-0.88,-1.14
-5.113e-03,-0.92,-0.76
-5.094e-03,-0.98,-1.1
-5.075e-03,-1,-0.8
-5.056e-03,-0.96,-1.1
-5.036e-03,-1.04,-0.82
-5.017e-03,-0.98,-1.14
-4.998e-03,-0.94,-0.76
-4.979e-03,-0.86,-1.1
-4.960e-03,-0.98,-0.78
-4.940e-03,-0.84,-1.18
-4.921e-03,-0.96,-0.74
-4.902e-03,-0.88,-1.18
-4.883e-03,-1.02,-0.8
-4.864e-03,-1.1,-1.16
-4.844e-03,-0.98,-0.84
-4.825e-03,-0.84,-1.16
-4.806e-03,-1.02,-0.78
-4.787e-03,-0.86,-1.08
-4.768e-03,-0.86,-0.8
-4.748e-03,-0.96,-1.08
-4.729e-03,-0.98,-0.84
-4.710e-03,-0.98,-1.14
-4.691e-03,-0.96,-0.82
-4.672e-03,-0.94,-1.08
-4.652e-03,-1.04,-0.82
-4.633e-03,-1.02,-1.18
-4.614e-03,-0.92,-0.84
-4.595e-03,-0.94,-1.1
-4.576e-03,-0.86,-0.78
-4.556e-03,-1.04,-1.16
-4.537e-03,-0.92,-0.8
-4.518e-03,-0.92,-1.06
-4.499e-03,-0.92,-0.8
-4.480e-03,-0.92,-1.14
-4.460e-03,-0.86,-0.76
-4.441e-03,-0.88,-1.1
-4.422e-03,-0.96,-0.74
-4.403e-03,-0.96,-1.16
-4.384e-03,-0.96,-0.86
-4.364e-03,-0.92,-1.18
-4.345e-03,-1.1,-0.8
-4.326e-03,-0.82,-1.12
-4.307e-03,-0.94,-0.76
-4.288e-03,-0.98,-1.22
-4.268e-03,-0.9,-0.76
-4.249e-03,-1,-1.14
-4.230e-03,-0.9,-0.84
-4.211e-03,-1.02,-1.1
-4.192e-03,-0.96,-0.88
-4.172e-03,-0.94,-1.12
-4.153e-03,-0.92,-0.8
-4.134e-03,-0.9,-1.16
-4.115e-03,-1,-0.8
-4.096e-03,-0.94,-1.06
-4.076e-03,-0.9,-0.82
-4.057e-03,-0.9,-1.1
-4.038e-03,-0.84,-0.74
-4.019e-03,-1.06,-1.1
-4.000e-03,-0.98,-0.8
-3.980e-03,-0.98,-1.14
-3.961e-03,-1.06,-0.9
-3.942e-03,-0.98,-1.14
-3.923e-03,-0.98,-0.86
-3.904e-03,-1,-1.1
-3.884e-03,-0.92,-0.8
-3.865e-03,-0.92,-1.18
-3.846e-03,-0.92,-0.8
-3.827e-03,-0.92,-1.14
-3.808e-03,-1.06,-0.84
-3.788e-03,-0.94,-1.22
-3.769e-03,-1,-0.82
-3.750e-03,-1.1,-1.16
-3.731e-03,-0.88,-0.76
-3.712e-03,-0.96,-1.1
-3.692e-03,-1.02,-0.78
-3.673e-03,-0.96,-1.06
-3.654e-03,-0.88,-0.8
-3.635e-03,-0.92,-1.2
-3.616e-03,-1.06,-0.84
-3.596e-03,-0.9,-1.18
-3.577e-03,-1.1,-0.78
-3.558e-03,-1.06,-1.16
-3.539e-03,-0.94,-0.72
-3.520e-03,-1.06,-1.14
-3.500e-03,-0.86,-0.76
-3.481e-03,-1.04,-1.16
-3.462e-03,-0.96,-0.82
-3.443e-03,-0.88,-1.18
-3.424e-03,-1.16,-0.8
-3.404e-03,-1,-1.16
-3.385e-03,-0.88,-0.8
-3.366e-03,-1.02,-1.08
-3.347e-03,-0.92,-0.84
-3.328e-03,-1.02,-1.08
-3.308e-03,-0.94,-0.8
-3.289e-03,-0.96,-1.14
-3.270e-03,-1,-0.86
-3.251e-03,-0.88,-1.14
-3.232e-03,-0.96,-0.78
-3.212e-03,-1.1,-1.18
-3.193e-03,-1.04,-0.82
-3.174e-03,-1,-1.18
-3.155e-03,-0.92,-0.84
-3.136e-03,-1,-1.16
-3.116e-03,-0.98,-0.88
-3.097e-03,-1.1,-1.18
-3.078e-03,-0.94,-0.8
-3.059e-03,-0.86,-1.18
-3.040e-03,-1.04,-0.78
-3.020e-03,-0.96,-1.12
-3.001e-03,-0.88,-0.76
-2.982e-03,-1.1,-1.14
-2.963e-03,-0.98,-0.86
-2.944e-03,-0.9,-1.18
-2.924e-03,-1.14,-0.78
-2.905e-03,-1.04,-1.16
-2.886e-03,-1.06,-0.8
-2.867e-03,-1,-1.1
-2.848e-03,-1,-0.84
-2.828e-03,-1.06,-1.22
-2.809e-03,-0.98,-0.86
-2.790e-03,-1.16,-1.2
-2.771e-03,-1.02,-0.84
-2.752e-03,-0.98,-1.16
-2.732e-03,-1.04,-0.76
-2.713e-03,-1.06,-1.2
-2.694e-03,-0.96,-0.8
-2.675e-03,-0.94,-1.1
-2.656e-03,-0.92,-0.8
-2.636e-03,-0.96,-1.16
-2.617e-03,-0.92,-0.78
-2.598e-03,-0.94,-1.14
-2.579e-03,-0.94,-0.8
-2.560e-03,-0.98,-1.08
-2.540e-03,-0.98,-0.78
-2.521e-03,-0.96,-1.12
-2.502e-03,-1,-0.78
-2.483e-03,-1.04,-1.1
-2.464e-03,-0.86,-0.82
-2.444e-03,-0.96,-1.18
-2.425e-03,-1.04,-0.8
-2.406e-03,-0.82,-1.18
-2.387e-03,-0.94,-0.8
-2.367e-03,-0.9,-1.08
-2.348e-03,-1,-0.84
-2.329e-03,-0.92,-1.16
-2.310e-03,-0.94,-0.84
-2.291e-03,-1.1,-1.16
-2.271e-03,-0.96,-0.8
-2.252e-03,-0.84,-1.24
-2.233e-03,-0.98,-0.78
-2.214e-03,-0.86,-1.12
-2.195e-03,-0.98,-0.76
-2.175e-03,-0.98,-1.18
-2.156e-03,-1,-0.74
-2.137e-03,-1,-1.18
-2.118e-03,-0.9,-0.84
-2.099e-03,-0.98,-1.18
-2.079e-03,-0.96,-0.86
-2.060e-03,-0.92,-1.12
-2.041e-03,-0.92,-0.82
-2.022e-03,-0.98,-1.1
-2.003e-03,-0.96,-0.76
-1.983e-03,-0.92,-1.12
-1.964e-03,-0.94,-0.8
-1.945e-03,-1.1,-1.16
-1.926e-03,-1.02,-0.84
-1.907e-03,-0.88,-1.08
-1.887e-03,-0.78,-0.72
-1.868e-03,-0.92,-1.14
-1.849e-03,-0.9,-0.78
-1.830e-03,-1,-1.14
-1.811e-03,-0.98,-0.84
-1.791e-03,-1.08,-1.14
-1.772e-03,-0.9,-0.84
-1.753e-03,-0.98,-1.16
-1.734e-03,-0.94,-0.78
-1.715e-03,-0.9,-1.14
-1.695e-03,-0.94,-0.8
-1.676e-03,-0.92,-1.22
-1.657e-03,-1.04,-0.78
-1.638e-03,-0.92,-1.14
-1.619e-03,-0.88,-0.8
-1.599e-03,-1.06,-1.16
-1.580e-03,-1.08,-0.84
-1.561e-03,-0.98,-1.18
-1.542e-03,-0.96,-0.76
-1.523e-03,-0.76,-1.14
-1.503e-03,-1.08,-0.72
-1.484e-03,-0.98,-1.14
-1.465e-03,-0.98,-0.92
-1.446e-03,-1.02,-1.12
-1.427e-03,-0.96,-0.78
-1.407e-03,-1.04,-1.14
-1.388e-03,-0.98,-0.82
-1.369e-03,-1,-1.16
-1.350e-03,-0.96,-0.78
-1.331e-03,-0.92,-1.1
-1.311e-03,-0.98,-0.82
-1.292e-03,-0.94,-1.22
-1.273e-03,-1.04,-0.78
-1.254e-03,-0.84,-1.12
-1.235e-03,-0.96,-0.72
-1.215e-03,-0.96,-1.22
-1.196e-03,-0.94,-0.86
-1.177e-03,-1,-1.16
-1.158e-03,-0.84,-0.76
-1.139e-03,-1.06,-1.14
-1.119e-03,-1,-0.82
-1.100e-03,-0.96,-1.18
-1.081e-03,-1.08,-0.84
-1.062e-03,-0.9,-1.1
-1.043e-03,-0.98,-0.8
-1.023e-03,-0.86,-1.18
-1.004e-03,-1.06,-0.8
-9.850e-04,-0.94,-1.12
-9.658e-04,-0.98,-0.8
-9.466e-04,-0.94,-1.12
-9.274e-04,-0.88,-0.8
-9.082e-04,-0.96,-1.16
-8.890e-04,-1.06,-0.76
-8.698e-04,-0.96,-1.16
-8.506e-04,-1.02,-0.88
-8.314e-04,-0.96,-1.16
-8.122e-04,-1,-0.86
-7.930e-04,-0.94,-1.1
-7.738e-04,-0.88,-0.7
-7.546e-04,-1.02,-1.14
-7.354e-04,-0.88,-0.82
-7.162e-04,-1.06,-1.18
-6.970e-04,-1.12,-0.78
-6.778e-04,-0.86,-1.06
-6.586e-04,-0.96,-0.78
-6.394e-04,-0.86,-1.2
-6.202e-04,-1.02,-0.82
-6.010e-04,-1.04,-1.24
-5.818e-04,-1.02,-0.86
-5.626e-04,-0.98,-1.08
-5.434e-04,-0.9,-0.78
-5.242e-04,-1.02,-1.12
-5.050e-04,-0.92,-0.82
-4.858e-04,-0.98,-1.18
-4.666e-04,-1,-0.86
-4.474e-04,-1.02,-1.2
-4.282e-04,-1.04,-0.84
-4.090e-04,-1.1,-1.2
-3.898e-04,-0.92,-0.72
-3.706e-04,-1.06,-1.14
-3.514e-04,-0.94,-0.72
-3.322e-04,-0.94,-1.12
-3.130e-04,-1.02,-0.86
-2.938e-04,-0.88,-1.14
-2.746e-04,-0.94,-0.84
-2.554e-04,-0.94,-1.16
-2.362e-04,-0.94,-0.78
-2.170e-04,-1.04,-1.08
-1.978e-04,-0.9,-0.84
-1.786e-04,-0.96,-1.18
-1.594e-04,-1.04,-0.86
-1.402e-04,-1.02,-1.18
-1.210e-04,-1,-0.86
-1.018e-04,-1,-1.12
-8.255e-05,-0.94,-0.84
-6.335e-05,-1.02,-1.14
-4.415e-05,-0.92,-0.8
-2.495e-05,-0.96,-1.72
-5.745e-06,-0.92,1.56
1.346e-05,1.56,-3.52
3.266e-05,-3.52,1.56
5.186e-05,0.68,-0.98
7.106e-05,-0.68,0.74
9.026e-05,-0.7,-0.9
1.095e-04,-0.68,-0.58
1.287e-04,-0.78,-0.98
1.479e-04,-0.84,-0.7
1.671e-04,-0.96,-1.06
1.863e-04,-0.86,-0.78
2.055e-04,-0.98,-1.1
2.247e-04,-0.92,-0.78
2.439e-04,-0.86,-1.14
2.631e-04,-0.84,-0.74
2.823e-04,-0.96,-1.14
3.015e-04,-1,-0.76
3.207e-04,-1,-1.16
3.399e-04,-0.98,-0.84
3.591e-04,-0.98,-1.22
3.783e-04,-1,-0.86
3.975e-04,-0.84,-1.14
4.167e-04,-1.06,-0.84
4.359e-04,-0.98,-1.16
4.551e-04,-0.9,-0.82
4.743e-04,-1.02,-1.24
4.935e-04,-1.16,-0.86
5.127e-04,-1.06,-1.18
5.319e-04,-1,-0.88
5.511e-04,-0.94,-1.24
5.703e-04,-1.14,-0.88
5.895e-04,-1.02,-1.2
6.087e-04,-1.08,-0.88
6.279e-04,-1.08,-1.2
6.471e-04,-1.04,-0.84
6.663e-04,-0.92,-1.22
6.855e-04,-1.06,-0.82
7.047e-04,-1.06,-1.22
7.239e-04,-0.98,-0.78
7.431e-04,-0.9,-1.1
7.623e-04,-0.94,-0.84
7.815e-04,-0.98,-1.18
8.007e-04,-1.08,-0.8
8.199e-04,-1.04,-1.16
8.391e-04,-0.94,-0.84
8.583e-04,-1.08,-1.14
8.775e-04,-0.94,-0.78
8.967e-04,-1.02,-1.18
9.159e-04,-1.04,-0.86
9.351e-04,-0.96,-1.18
9.543e-04,-0.96,-0.84
9.735e-04,-0.86,-1.16
9.927e-04,-1.02,-0.76
1.012e-03,-0.96,-1.18
1.031e-03,-1.1,-0.8
1.050e-03,-0.96,-1.16
1.070e-03,-1.08,-0.72
1.089e-03,-0.9,-1.06
1.108e-03,-0.94,-0.66
1.127e-03,-0.96,-1.16
1.146e-03,-0.9,-0.78
1.166e-03,-1.1,-1.2
1.185e-03,-1.06,-0.82
1.204e-03,-1.1,-1.14
1.223e-03,-0.96,-0.8
1.242e-03,-0.94,-1.14
1.262e-03,-1.08,-0.84
1.281e-03,-0.98,-1.16
1.300e-03,-0.94,-0.82
1.319e-03,-0.96,-1.16
1.338e-03,-0.98,-0.84
1.358e-03,-1.12,-1.16
1.377e-03,-0.9,-0.84
1.396e-03,-0.96,-1.14
1.415e-03,-0.86,-0.74
1.434e-03,-0.92,-1.22
1.454e-03,-1,-0.84
1.473e-03,-1.08,-1.2
1.492e-03,-0.96,-0.84
1.511e-03,-1.04,-1.18
1.530e-03,-0.9,-0.84
1.550e-03,-1.12,-1.28
1.569e-03,-1.04,-0.84
1.588e-03,-0.92,-1.1
1.607e-03,-1.06,-0.8
1.626e-03,-0.9,-1.08
1.646e-03,-1.04,-0.82
1.665e-03,-0.92,-1.16
1.684e-03,-1.04,-0.84
1.703e-03,-1.08,-1.14
1.722e-03,-0.9,-0.84
1.742e-03,-1.04,-1.12
1.761e-03,-0.96,-0.82
1.780e-03,-0.86,-1.16
1.799e-03,-1.04,-0.68
1.818e-03,-1.02,-1.16
1.838e-03,-1,-0.82
1.857e-03,-0.98,-1.1
1.876e-03,-0.94,-0.82
1.895e-03,-1.04,-1.14
1.914e-03,-1,-0.78
1.934e-03,-1,-1.16
1.953e-03,-1.04,-0.82
1.972e-03,-0.88,-1.12
1.991e-03,-0.96,-0.82
2.010e-03,-1.06,-1.2
2.030e-03,-0.94,-0.82
2.049e-03,-1.04,-1.2
2.068e-03,-0.88,-0.84
2.087e-03,-1.16,-1.18
2.106e-03,-0.96,-0.72
2.126e-03,-0.88,-1.06
2.145e-03,-0.9,-0.78
2.164e-03,-0.98,-1.16
2.183e-03,-1.06,-0.86
2.202e-03,-1.02,-1.2
2.222e-03,-0.98,-0.86
2.241e-03,-0.92,-1.12
2.260e-03,-0.86,-0.8
2.279e-03,-0.96,-1.14
2.298e-03,-1.04,-0.86
2.318e-03,-1.02,-1.12
2.337e-03,-0.92,-0.72
2.356e-03,-0.9,-1.18
2.375e-03,-1,-0.86
2.394e-03,-1.08,-1.16
2.414e-03,-1.06,-0.78
2.433e-03,-0.86,-1.16
2.452e-03,-0.86,-0.74
2.471e-03,-0.96,-1.16
2.490e-03,-0.98,-0.8
2.510e-03,-0.9,-1.1
2.529e-03,-0.98,-0.82
2.548e-03,-1,-1.12
2.567e-03,-1.02,-0.8
2.586e-03,-1.02,-1.1
2.606e-03,-0.98,-0.86
2.625e-03,-0.96,-1.18
2.644e-03,-1.02,-0.78
2.663e-03,-0.88,-1.12
2.682e-03,-1.02,-0.74
2.702e-03,-0.96,-1.06
2.721e-03,-0.86,-0.78
2.740e-03,-0.92,-1.16
2.759e-03,-0.9,-0.68
2.778e-03,-0.96,-1.1
2.798e-03,-0.8,-0.76
2.817e-03,-0.92,-1.18
2.836e-03,-1.02,-0.82
2.855e-03,-0.96,-1.14
2.874e-03,-1.04,-0.84
2.894e-03,-0.9,-1.2
2.913e-03,-0.84,-0.8
2.932e-03,-0.96,-1.06
2.951e-03,-0.88,-0.78
2.970e-03,-1.1,-1.16
2.990e-03,-1.02,-0.88
3.009e-03,-0.86,-1.18
3.028e-03,-1,-0.82
3.047e-03,-0.98,-1.1
3.066e-03,-0.84,-0.76
3.086e-03,-1,-1.06
3.105e-03,-0.88,-0.76
3.124e-03,-1,-1.1
3.143e-03,-1,-0.84
3.162e-03,-1.04,-1.14
3.182e-03,-1.02,-0.82
3.201e-03,-0.92,-1.14
3.220e-03,-1.06,-0.8
3.239e-03,-0.8,-1.08
3.258e-03,-0.88,-0.7
3.278e-03,-0.96,-1.12
3.297e-03,-1,-0.86
3.316e-03,-0.96,-1.1
3.335e-03,-0.98,-0.82
3.354e-03,-1.04,-1.12
3.374e-03,-0.96,-0.8
3.393e-03,-0.92,-1.16
3.412e-03,-1.1,-0.8
3.431e-03,-1.12,-1.16
3.450e-03,-0.96,-0.86
3.470e-03,-1,-1.08
3.489e-03,-0.98,-0.82
3.508e-03,-0.98,-1.18
3.527e-03,-1,-0.9
3.546e-03,-1.06,-1.18
3.566e-03,-1.02,-0.84
3.585e-03,-0.98,-1.08
3.604e-03,-0.84,-0.66
3.623e-03,-0.84,-1.14
3.642e-03,-0.92,-0.76
3.662e-03,-0.98,-1.08
3.681e-03,-0.94,-0.8
3.700e-03,-0.92,-1.14
3.719e-03,-0.96,-0.76
3.738e-03,-0.98,-1.08
3.758e-03,-1,-0.8
3.777e-03,-0.92,-1.06
3.796e-03,-0.76,-0.72
3.815e-03,-1.06,-1.14
3.835e-03,-0.88,-0.8
3.854e-03,-0.94,-1.1
3.873e-03,-1.02,-0.82
3.892e-03,-0.92,-1.08
3.911e-03,-0.82,-0.72
3.931e-03,-0.88,-1.08
3.950e-03,-0.86,-0.76
3.969e-03,-1.06,-1.08
3.988e-03,-0.92,-0.74
4.007e-03,-0.92,-1.1
4.027e-03,-0.96,-0.78
4.046e-03,-0.82,-1.14
4.065e-03,-0.98,-0.76
4.084e-03,-0.94,-1.1
4.103e-03,-0.94,-0.74
4.123e-03,-0.98,-1.12
4.142e-03,-0.88,-0.86
4.161e-03,-1.04,-1.12
4.180e-03,-0.92,-0.74
4.199e-03,-1.08,-1.2
4.219e-03,-0.86,-0.76
4.238e-03,-0.8,-1.14
4.257e-03,-1.04,-0.76
4.276e-03,-0.88,-1.02
4.295e-03,-0.98,-0.74
4.315e-03,-1.04,-1.14
4.334e-03,-0.9,-0.8
4.353e-03,-1,-1.16
4.372e-03,-0.94,-0.76
4.391e-03,-1,-1.06
4.411e-03,-0.84,-0.7
4.430e-03,-0.82,-1.16
4.449e-03,-0.98,-0.76
4.468e-03,-0.86,-1.14
4.487e-03,-1.02,-0.76
4.507e-03,-0.98,-1.1
4.526e-03,-1,-0.76
4.545e-03,-1.04,-1.14
4.564e-03,-1.1,-0.86
4.583e-03,-0.98,-1.14
4.603e-03,-1.12,-0.8
4.622e-03,-0.94,-1.18
4.641e-03,-0.92,-0.82
4.660e-03,-0.94,-1.2
4.679e-03,-0.98,-0.84
4.699e-03,-1.02,-1.16
4.718e-03,-1,-0.8
4.737e-03,-0.98,-1.14
4.756e-03,-0.98,-0.74
4.775e-03,-0.96,-1.14
4.795e-03,-1.1,-0.82
4.814e-03,-0.98,-1.18
4.833e-03,-1.1,-0.84
4.852e-03,-0.98,-1.12
4.871e-03,-0.96,-0.8
4.891e-03,-1.02,-1.12
4.910e-03,-1.02,-0.82
4.929e-03,-1.02,-1.14
4.948e-03,-1.02,-0.8
4.967e-03,-1.08,-1.18
4.987e-03,-0.98,-0.8
5.006e-03,-1.02,-1.14
5.025e-03,-0.94,-0.86
5.044e-03,-1.08,-1.16
5.063e-03,-0.88,-0.8
5.083e-03,-1.1,-1.16
5.102e-03,-1.1,-0.78
5.121e-03,-0.94,-1.16
5.140e-03,-1.02,-0.84
5.159e-03,-0.86,-1.12
5.179e-03,-1.06,-0.74
5.198e-03,-0.86,-1.08
5.217e-03,-0.96,-0.76
5.236e-03,-0.96,-1.16
5.255e-03,-1.08,-0.82
5.275e-03,-0.96,-1.1
5.294e-03,-1.06,-0.82
5.313e-03,-0.84,-1.16
5.332e-03,-1,-0.78
5.351e-03,-0.88,-1.1
5.371e-03,-0.94,-0.78
5.390e-03,-0.98,-1.14
5.409e-03,-0.92,-0.72
5.428e-03,-0.94,-1.2
5.447e-03,-1.06,-0.78
5.467e-03,-0.94,-1.18
5.486e-03,-1.1,-0.86
5.505e-03,-1.02,-1.1
5.524e-03,-1.02,-0.74
5.543e-03,-0.96,-1.08
5.563e-03,-0.84,-0.8
5.582e-03,-0.94,-1.12
5.601e-03,-0.96,-0.8
5.620e-03,-0.94,-1.12
5.639e-03,-1.02,-0.84
5.659e-03,-0.88,-1.18
5.678e-03,-1.06,-0.72
5.697e-03,-0.88,-1.04
5.716e-03,-0.88,-0.76
5.735e-03,-1,-1.06
5.755e-03,-0.86,-0.8
5.774e-03,-0.94,-1.1
5.793e-03,-0.84,-0.7
5.812e-03,-0.94,-1.08
5.831e-03,-1.04,-0.84
5.851e-03,-0.94,-1.12
5.870e-03,-0.88,-0.82
5.889e-03,-0.94,-1.14
5.908e-03,-0.98,-0.82
5.927e-03,-1.1,-1.1
5.947e-03,-0.94,-0.82
5.966e-03,-0.98,-1.16
5.985e-03,-1.08,-0.8
6.004e-03,-0.96,-1.12
6.023e-03,-1.04,-0.84
6.043e-03,-0.92,-1.14
6.062e-03,-0.94,-0.82
6.081e-03,-1,-1.1
6.100e-03,-0.98,-0.86
6.119e-03,-0.94,-1.12
6.139e-03,-0.98,-0.86
6.158e-03,-1.04,-1.18
6.177e-03,-1.08,-0.86
6.196e-03,-0.94,-1.12
6.215e-03,-1.02,-0.82
6.235e-03,-0.94,-1.1
6.254e-03,-0.96,-0.78
6.273e-03,-1.08,-1.12
6.292e-03,-0.92,-0.82
6.311e-03,-0.96,-1.14
6.331e-03,-1.06,-0.84
6.350e-03,-0.96,-1.1
6.369e-03,-1.04,-0.82
6.388e-03,-0.94,-1.14
6.407e-03,-0.92,-0.8
6.427e-03,-0.96,-1.14
6.446e-03,-0.96,-0.86
6.465e-03,-0.96,-1.12
6.484e-03,-1,-0.82
6.503e-03,-0.92,-1.14
6.523e-03,-0.94,-0.78
6.542e-03,-0.86,-1.14
6.561e-03,-1.1,-0.74
6.580e-03,-0.98,-1.08
6.599e-03,-0.86,-0.72
6.619e-03,-0.88,-1.18
6.638e-03,-1.1,-0.74
6.657e-03,-1.04,-1.18
6.676e-03,-1.02,-0.86
6.695e-03,-0.84,-1.1
6.715e-03,-0.92,-0.82
6.734e-03,-1,-1.14
6.753e-03,-1.02,-0.88
6.772e-03,-1.02,-1.14
6.791e-03,-0.9,-0.84
6.811e-03,-1.1,-1.12
6.830e-03,-0.9,-0.8
6.849e-03,-0.94,-1.1
6.868e-03,-0.96,-0.76
6.887e-03,-0.9,-1.1
6.907e-03,-0.96,-0.74
6.926e-03,-0.76,-1.16
6.945e-03,-0.98,-0.7
6.964e-03,-1.04,-1.16
6.984e-03,-1,-0.82
7.003e-03,-0.88,-1.12
7.022e-03,-1.08,-0.72
7.041e-03,-0.84,-1.16
7.060e-03,-0.96,-0.76
7.080e-03,-1.04,-1.16
7.099e-03,-0.94,-0.82
7.118e-03,-0.94,-1.16
7.137e-03,-1,-0.82
7.156e-03,-1.04,-1.18
7.176e-03,-1.04,-0.84
7.195e-03,-1,-1.1
7.214e-03,-1.02,-0.72
7.233e-03,-0.96,-1.14
7.252e-03,-1.02,-0.82
7.272e-03,-0.94,-1.08
7.291e-03,-0.94,-0.8
7.310e-03,-1.04,-1.14
7.329e-03,-0.72,-0.7
7.348e-03,-0.94,-1.12
7.368e-03,-0.9,-0.82
7.387e-03,-1,-1.12
7.406e-03,-0.98,-0.86
7.425e-03,-0.96,-1.16
7.444e-03,-1.04,-0.88
7.464e-03,-1.12,-1.2
7.483e-03,-0.88,-0.74
7.502e-03,-0.84,-1.12
7.521e-03,-0.94,-0.72
7.540e-03,-0.76,-1.1
7.560e-03,-0.98,-0.66
7.579e-03,-0.84,-1.12
7.598e-03,-1.02,-0.8
7.617e-03,-0.96,-1.1
7.636e-03,-0.86,-0.74
7.656e-03,-1.02,-1.1
7.675e-03,-0.98,-0.8
7.694e-03,-1.02,-1.1
7.713e-03,-0.86,-0.78
7.732e-03,-1.02,-1.14
7.752e-03,-0.98,-0.8
7.771e-03,-1.02,-1.22
7.790e-03,-0.96,-0.86
7.809e-03,-1.02,-1.14
7.828e-03,-0.92,-0.84
7.848e-03,-0.98,-1.1
7.867e-03,-0.96,-0.76
7.886e-03,-0.96,-1.1
7.905e-03,-0.98,-0.8
7.924e-03,-0.98,-1.16
7.944e-03,-0.98,-0.78
7.963e-03,-1.04,-1.18
7.982e-03,-1.02,-0.8
8.001e-03,-1.02,-1.06
8.020e-03,-0.88,-0.78
8.040e-03,-0.96,-1.08
8.059e-03,-1,-0.86
8.078e-03,-0.96,-1.1
8.097e-03,-0.94,-0.84
8.116e-03,-0.92,-1.06
8.136e-03,-0.96,-0.82
8.155e-03,-0.98,-1.08
8.174e-03,-0.94,-0.76
8.193e-03,-0.94,-1.18
8.212e-03,-0.88,-0.82
8.232e-03,-1.04,-1.12
8.251e-03,-1.04,-0.84
8.270e-03,-0.9,-1.18
8.289e-03,-1.14,-0.84
8.308e-03,-0.98,-1.14
8.328e-03,-0.9,-0.8
8.347e-03,-1.08,-1.1
8.366e-03,-0.98,-0.8
8.385e-03,-1.06,-1.14
8.404e-03,-0.94,-0.8
8.424e-03,-0.96,-1.16
8.443e-03,-1.04,-0.8
8.462e-03,-0.8,-1.12
8.481e-03,-0.92,-0.76
8.500e-03,-0.96,-1.14
8.520e-03,-1.06,-0.76
8.539e-03,-0.82,-1.12
8.558e-03,-1,-0.72
8.577e-03,-0.98,-1.14
8.596e-03,-0.92,-0.82
8.616e-03,-1.02,-1.1
8.635e-03,-1.04,-0.76
8.654e-03,-0.9,-1.1
8.673e-03,-0.94,-0.78
8.692e-03,-1.12,-1.14
8.712e-03,-0.84,-0.76
8.731e-03,-0.8,-1.14
8.750e-03,-0.96,-0.72
8.769e-03,-1.02,-1.2
8.788e-03,-1.2,-0.8
8.808e-03,-0.96,-1.12
8.827e-03,-0.96,-0.86
8.846e-03,-0.9,-1.14
8.865e-03,-1.08,-0.8
8.884e-03,-1.04,-1.06
8.904e-03,-0.92,-0.78
8.923e-03,-1.08,-1.18
8.942e-03,-0.9,-0.84
8.961e-03,-1,-1.12
8.980e-03,-0.96,-0.8
9.000e-03,-1.06,-1.2
9.019e-03,-1.16,-0.9
9.038e-03,-0.98,-1.1
9.057e-03,-0.92,-0.78
9.076e-03,-0.96,-1.14
9.096e-03,-1,-0.86
9.115e-03,-0.98,-1.1
9.134e-03,-0.96,-0.82
9.153e-03,-0.96,-1.18
9.172e-03,-0.98,-0.74
9.192e-03,-0.82,-1.04
9.211e-03,-0.96,-0.74
9.230e-03,-1.02,-1.06
9.249e-03,-0.94,-0.8
9.268e-03,-0.98,-1.14
9.288e-03,-1.04,-0.86
9.307e-03,-1.04,-1.16
9.326e-03,-0.98,-0.84
9.345e-03,-0.94,-1.12
9.364e-03,-0.9,-0.8
9.384e-03,-0.94,-1.12
9.403e-03,-1.06,-0.78
9.422e-03,-0.96,-1.1
9.441e-03,-0.98,-0.8
9.460e-03,-0.9,-1.12
9.480e-03,-0.98,-0.76
9.499e-03,-0.92,-1.16
9.518e-03,-1.1,-0.78
9.537e-03,-0.94,-1.1
9.556e-03,-0.9,-0.78
9.576e-03,-1.02,-1.14
9.595e-03,-0.88,-0.74
9.614e-03,-1.04,-1.12
9.633e-03,-0.92,-0.82
9.652e-03,-0.86,-1.12
9.672e-03,-0.94,-0.8
9.691e-03,-0.84,-1.1
9.710e-03,-0.96,-0.76
9.729e-03,-1,-1.12
9.748e-03,-1.04,-0.84
9.768e-03,-1,-1.14
9.787e-03,-0.94,-0.82
9.806e-03,-1.04,-1.1
9.825e-03,-1.04,-0.86
9.844e-03,-1.06,-1.14
9.864e-03,-1.08,-0.88
9.883e-03,-1.02,-1.14
9.902e-03,-0.98,-0.82
9.921e-03,-1.12,-1.16
9.940e-03,-0.96,-0.82
9.960e-03,-1.04,-1.16
9.979e-03,-1.02,-0.76
9.998e-03,-0.82,-1.08
1.002e-02,-0.92,-0.76
1.004e-02,-0.9,-1.06
1.006e-02,-1,-0.78
1.007e-02,-0.92,-1.16
1.009e-02,-0.98,-0.86
1.011e-02,-1.04,-1.26
1.013e-02,-1.02,-0.84
1.015e-02,-0.92,-1.14
1.017e-02,-0.96,-0.8
1.019e-02,-0.96,-1.18
1.021e-02,-0.98,-0.8
1.023e-02,-0.96,-1.08
1.025e-02,-0.94,-0.8
1.027e-02,-1.02,-1.1
1.029e-02,-0.96,-0.82
1.031e-02,-1,-1.14
1.032e-02,-0.88,-0.78
1.034e-02,-0.88,-1.1
1.036e-02,-0.92,-0.8
1.038e-02,-0.9,-1.06
1.040e-02,-0.94,-0.76
1.042e-02,-0.86,-1.14
1.044e-02,-1.02,-0.76
1.046e-02,-0.96,-1.06
1.048e-02,-0.9,-0.8
1.050e-02,-0.92,-1.1
1.052e-02,-0.88,-0.68
1.054e-02,-0.96,-1.1
1.055e-02,-0.96,-0.82
1.057e-02,-0.92,-1.22
1.059e-02,-1.16,-0.82
1.061e-02,-0.96,-1.1
1.063e-02,-0.9,-0.82
1.065e-02,-0.98,-1.12
1.067e-02,-0.9,-0.76
1.069e-02,-1,-1.08
1.071e-02,-0.82,-0.72
1.073e-02,-0.88,-1.16
1.075e-02,-0.98,-0.86
1.077e-02,-1.06,-1.12
1.079e-02,-0.8,-0.76
1.080e-02,-0.98,-1.08
1.082e-02,-0.9,-0.8
1.084e-02,-0.92,-1.08
1.086e-02,-0.98,-0.74
1.088e-02,-0.92,-1.12
1.090e-02,-0.96,-0.76
1.092e-02,-0.88,-1.14
1.094e-02,-1.04,-0.82
1.096e-02,-0.98,-1.12
1.098e-02,-0.92,-0.78
1.100e-02,-0.94,-1.2
1.102e-02,-0.88,-0.8
1.103e-02,-0.92,-1.1
1.105e-02,-0.98,-0.78
1.107e-02,-0.92,-1.18
1.109e-02,-0.98,-0.84
1.111e-02,-0.94,-1.1
1.113e-02,-1.02,-0.84
1.115e-02,-0.96,-1.14
1.117e-02,-0.94,-0.78
1.119e-02,-1.04,-1.08
1.121e-02,-0.92,-0.74
1.123e-02,-0.92,-1.08
1.125e-02,-0.94,-0.82
1.127e-02,-0.86,-1.14
1.128e-02,-1.1,-0.84
1.130e-02,-0.98,-1.12
1.132e-02,-0.98,-0.76
1.134e-02,-0.94,-1.06
1.136e-02,-0.94,-0.78
1.138e-02,-0.96,-1.08
1.140e-02,-1.02,-0.78
1.142e-02,-0.96,-1.1
1.144e-02,-1,-0.76
1.146e-02,-1,-1.16
1.148e-02,-1.02,-0.86
1.150e-02,-0.98,-1.1
1.151e-02,-0.96,-0.8
1.153e-02,-1.04,-1.18
1.155e-02,-1.02,-0.84
1.157e-02,-1.08,-1.18
1.159e-02,-1.02,-0.92
1.161e-02,-1.02,-1.12
1.163e-02,-0.9,-0.82
1.165e-02,-1,-1.1
1.167e-02,-0.92,-0.82
1.169e-02,-0.9,-1.14
1.171e-02,-1.04,-0.78
1.173e-02,-0.98,-1.1
1.175e-02,-0.98,-0.88
1.176e-02,-0.96,-1.18
1.178e-02,-1.02,-0.78
1.180e-02,-0.9,-1.12
1.182e-02,-1,-0.78
1.184e-02,-1.12,-1.16
1.186e-02,-0.94,-0.88
1.188e-02,-1.08,-1.1
1.190e-02,-0.98,-0.84
1.192e-02,-0.98,-1.16
1.194e-02,-0.9,-0.8
1.196e-02,-0.94,-1.06
1.198e-02,-0.88,-0.76
1.200e-02,-0.9,-1.12
1.201e-02,-0.96,-0.68
1.203e-02,-0.82,-1.08
1.205e-02,-0.94,-0.74
1.207e-02,-0.98,-1.18
1.209e-02,-0.96,-0.88
1.211e-02,-0.98,-1.16
1.213e-02,-0.98,-0.76
1.215e-02,-1.02,-1.1
1.217e-02,-1,-0.82
1.219e-02,-0.9,-1.08
1.221e-02,-0.86,-0.8
1.223e-02,-0.94,-1.1
1.224e-02,-1.02,-0.84
1.226e-02,-0.92,-1.16
1.228e-02,-1.08,-0.84
1.230e-02,-0.96,-1.14
1.232e-02,-1,-0.82
1.234e-02,-0.98,-1.08
1.236e-02,-0.9,-0.7
1.238e-02,-0.96,-1.1
1.240e-02,-0.96,-0.86
1.242e-02,-0.96,-1.18
1.244e-02,-0.94,-0.78
1.246e-02,-1,-1.08
1.248e-02,-0.88,-0.76
1.249e-02,-0.9,-1.12
1.251e-02,-0.94,-0.78
1.253e-02,-1,-1.1
1.255e-02,-1,-0.78
1.257e-02,-1,-1.04
1.259e-02,-0.86,-0.76
1.261e-02,-0.82,-1.1
1.263e-02,-0.94,-0.7
1.265e-02,-0.88,-1.02
1.267e-02,-0.96,-0.76
1.269e-02,-0.9,-1.14
1.271e-02,-0.98,-0.84
1.272e-02,-1.04,-1.06
1.274e-02,-0.94,-0.8
1.276e-02,-1,-1.06
1.278e-02,-0.9,-0.8
1.280e-02,-0.88,-1.12
1.282e-02,-0.92,-0.78
1.284e-02,-0.78,-1.16
1.286e-02,-0.86,-0.74
1.288e-02,-0.94,-1.12
1.290e-02,-0.9,-0.78
1.292e-02,-1.02,-1.08
1.294e-02,-0.88,-0.8
1.296e-02,-1.06,-1.16
1.297e-02,-0.88,-0.78
1.299e-02,-0.9,-1.18
1.301e-02,-0.98,-0.74
1.303e-02,-0.86,-1.18
1.305e-02,-1.04,-0.82
1.307e-02,-0.94,-1.18
1.309e-02,-0.92,-0.78
1.311e-02,-1.06,-1.14
1.313e-02,-0.92,-0.8
1.315e-02,-1.06,-1.14
1.317e-02,-0.96,-0.84
1.319e-02,-0.98,-1.16
1.320e-02,-0.98,-0.88
1.322e-02,-1.04,-1.1
1.324e-02,-0.98,-0.78
1.326e-02,-0.9,-1.12
1.328e-02,-0.98,-0.7
1.330e-02,-0.9,-1.16
1.332e-02,-1.04,-0.76
1.334e-02,-0.96,-1.16
1.336e-02,-0.94,-0.78
1.338e-02,-0.88,-1.18
1.340e-02,-1.1,-0.76
1.342e-02,-0.96,-1.16
1.344e-02,-1,-0.84
1.345e-02,-1.02,-1.1
1.347e-02,-0.92,-0.82
1.349e-02,-0.94,-1.12
1.351e-02,-1.04,-0.8
1.353e-02,-0.88,-1.18
1.355e-02,-1.06,-0.82
1.357e-02,-0.98,-1.12
1.359e-02,-0.9,-0.82
1.361e-02,-0.94,-1.18
1.363e-02,-0.88,-0.78
1.365e-02,-0.98,-1.1
1.367e-02,-1,-0.7
1.368e-02,-0.96,-1.06
1.370e-02,-0.92,-0.76
1.372e-02,-0.8,-1.16
1.374e-02,-0.9,-0.76
1.376e-02,-1.12,-1.18
1.378e-02,-0.9,-0.82
1.380e-02,-0.98,-1.12
1.382e-02,-0.94,-0.78
1.384e-02,-0.88,-1.12
1.386e-02,-0.96,-0.78
1.388e-02,-0.96,-1.18
1.390e-02,-0.94,-0.76
1.392e-02,-0.88,-1.08
1.393e-02,-0.92,-0.82
1.395e-02,-0.96,-1.12
1.397e-02,-0.94,-0.82
1.399e-02,-1.06,-1.16
1.401e-02,-1.02,-0.86
1.403e-02,-1.02,-1.12
1.405e-02,-0.96,-0.76
1.407e-02,-0.88,-1.14
1.409e-02,-0.88,-0.8
1.411e-02,-1.02,-1.12
1.413e-02,-0.88,-0.72
1.415e-02,-0.94,-1.14
1.416e-02,-0.94,-0.82
1.418e-02,-0.92,-1.16
1.420e-02,-1,-0.8
1.422e-02,-0.98,-1.12
1.424e-02,-0.96,-0.8
1.426e-02,-0.98,-1.1
1.428e-02,-0.96,-0.74
1.430e-02,-1,-1.14
1.432e-02,-0.9,-0.72
1.434e-02,-1.02,-1.14
1.436e-02,-0.96,-0.88
1.438e-02,-0.96,-1.12
1.440e-02,-1.08,-0.86
1.441e-02,-0.98,-1.18
1.443e-02,-0.92,-0.84
1.445e-02,-0.92,-1.14
1.447e-02,-0.94,-0.84
1.449e-02,-1.06,-1.14
1.451e-02,-0.94,-0.9
1.453e-02,-1.04,-1.2
1.455e-02,-0.88,-0.82
1.457e-02,-0.96,-1.14
1.459e-02,-0.88,-0.78
1.461e-02,-1.02,-1.14
1.463e-02,-0.92,-0.86
1.464e-02,-0.98,-1.16
1.466e-02,-1,-0.86
1.468e-02,-0.98,-1.14
1.470e-02,-1,-0.82
1.472e-02,-0.94,-1.16
1.474e-02,-1.02,-0.86
1.476e-02,-1.02,-1.14
1.478e-02,-1,-0.82
1.480e-02,-0.82,-1.16
1.482e-02,-0.92,-0.74
1.484e-02,-1.04,-1.1
1.486e-02,-0.98,-0.8
1.488e-02,-1.02,-1.08
1.489e-02,-0.94,-0.76
1.491e-02,-0.92,-1.12
1.493e-02,-1.02,-0.84
1.495e-02,-0.98,-1.1
1.497e-02,-0.9,-0.76
1.499e-02,-0.9,-1.12
1.501e-02,-0.86,-0.82
1.503e-02,-1.04,-1.16
1.505e-02,-0.98,-0.86
1.507e-02,-0.92,-1.08
1.509e-02,-0.94,-0.76
1.511e-02,-0.96,-1.12
1.512e-02,-1.02,-0.84
1.514e-02,-0.96,-1.16
1.516e-02,-0.88,-0.86
1.518e-02,-1.1,-1.14
1.520e-02,-0.98,-0.84
1.522e-02,-0.96,-1.08
1.524e-02,-0.98,-0.8
1.526e-02,-0.92,-1.16
1.528e-02,-1,-0.82
1.530e-02,-0.84,-1.1
1.532e-02,-1.02,-0.8
1.534e-02,-0.94,-1.14
1.536e-02,-0.98,-0.82
1.537e-02,-1,-1.14
1.539e-02,-0.9,-0.82
1.541e-02,-0.94,-1.1
1.543e-02,-1.04,-0.82
1.545e-02,-0.88,-1.06
1.547e-02,-0.98,-0.8
1.549e-02,-0.96,-1.1
1.551e-02,-0.86,-0.8
1.553e-02,-0.86,-1.1
1.555e-02,-0.86,-0.76
1.557e-02,-0.96,-1.14
1.559e-02,-0.86,-0.8
1.560e-02,-0.98,-1.1
1.562e-02,-0.92,-0.84
1.564e-02,-0.94,-1.14
1.566e-02,-0.94,-0.86
1.568e-02,-1.04,-1.12
1.570e-02,-0.92,-0.8
1.572e-02,-0.98,-1.16
1.574e-02,-0.98,-0.86
1.576e-02,-0.84,-1.16
1.578e-02,-1.06,-0.76
1.580e-02,-0.84,-1.12
1.582e-02,-0.94,-0.7
1.584e-02,-1.06,-1.14
1.585e-02,-0.9,-0.82
1.587e-02,-1.02,-1.12
1.589e-02,-0.76,-0.74
1.591e-02,-1.04,-1.14
1.593e-02,-1.02,-0.86
1.595e-02,-0.9,-1.12
1.597e-02,-1.02,-0.76
1.599e-02,-1.02,-1.12
1.601e-02,-0.9,-0.78
1.603e-02,-0.92,-1.22
1.605e-02,-0.94,-0.78
1.607e-02,-0.94,-1.06
1.608e-02,-0.9,-0.74
1.610e-02,-0.98,-1.08
1.612e-02,-0.92,-0.78
1.614e-02,-0.9,-1.16
1.616e-02,-1.06,-0.84
1.618e-02,-0.98,-1.18
1.620e-02,-1.04,-0.82
1.622e-02,-0.94,-1.16
1.624e-02,-1.04,-0.82
1.626e-02,-0.98,-1.08
1.628e-02,-0.98,-0.8
1.630e-02,-1.04,-1.16
1.632e-02,-1.06,-0.84
1.633e-02,-0.94,-1.18
1.635e-02,-1.08,-0.86
1.637e-02,-1,-1.16
1.639e-02,-1.06,-0.82
1.641e-02,-1.08,-1.1
1.643e-02,-0.9,-0.84
1.645e-02,-0.94,-1.16
1.647e-02,-0.98,-0.78
1.649e-02,-0.92,-1.14
1.651e-02,-0.9,-0.8
1.653e-02,-0.96,-1.16
1.655e-02,-0.92,-0.82
1.656e-02,-1.02,-1.12
1.658e-02,-1.04,-0.8
1.660e-02,-1.02,-1.22
1.662e-02,-1.02,-0.74
1.664e-02,-1.1,-1.16
1.666e-02,-1.02,-0.8
1.668e-02,-0.98,-1.12
1.670e-02,-1.06,-0.76
1.672e-02,-0.98,-1.04
1.674e-02,-0.9,-0.78
1.676e-02,-0.94,-1.12
1.678e-02,-0.9,-0.76
1.680e-02,-1,-1.12
1.681e-02,-0.96,-0.82
1.683e-02,-1.04,-1.18
1.685e-02,-1.02,-0.94
1.687e-02,-1,-1.12
1.689e-02,-0.92,-0.84
1.691e-02,-1.06,-1.14
1.693e-02,-0.9,-0.8
1.695e-02,-0.96,-1.1
1.697e-02,-0.96,-0.82
1.699e-02,-0.96,-1.12
1.701e-02,-0.98,-0.8
1.703e-02,-1.02,-1.16
1.704e-02,-0.94,-0.8
1.706e-02,-1.12,-1.18
1.708e-02,-0.9,-0.82
1.710e-02,-0.88,-1.08
1.712e-02,-0.88,-0.8
1.714e-02,-0.98,-1.1
1.716e-02,-0.9,-0.68
1.718e-02,-0.96,-1.12
1.720e-02,-1.08,-0.82
1.722e-02,-0.88,-1.18
1.724e-02,-0.96,-0.86
1.726e-02,-0.96,-1.08
1.728e-02,-0.96,-0.76
1.729e-02,-1.02,-1.1
1.731e-02,-0.9,-0.8
1.733e-02,-0.92,-1.06
1.735e-02,-1,-0.78
1.737e-02,-0.94,-1.14
1.739e-02,-0.98,-0.72
1.741e-02,-1.08,-1.16
1.743e-02,-1.02,-0.76
1.745e-02,-0.96,-1.1
1.747e-02,-1.02,-0.76
1.749e-02,-1.04,-1.18
1.751e-02,-0.96,-0.84
1.752e-02,-1.02,-1.14
1.754e-02,-1,-0.88
1.756e-02,-0.96,-1.16
1.758e-02,-1.02,-0.84
1.760e-02,-0.98,-1.08
1.762e-02,-0.98,-0.74
1.764e-02,-0.82,-1.12
1.766e-02,-0.96,-0.72
1.768e-02,-0.96,-1.06
1.770e-02,-1,-0.74
1.772e-02,-0.86,-1.12
1.774e-02,-0.94,-0.82
1.776e-02,-0.96,-1.1
1.777e-02,-0.9,-0.82
1.779e-02,-1,-1.12
1.781e-02,-0.9,-0.8
1.783e-02,-1.1,-1.14
1.785e-02,-0.96,-0.78
1.787e-02,-0.96,-1.08
1.789e-02,-1,-0.74
1.791e-02,-0.94,-1.06
1.793e-02,-0.96,-0.78
1.795e-02,-0.96,-1.1
1.797e-02,-0.9,-0.78
1.799e-02,-1.04,-1.18
1.801e-02,-0.96,-0.86
1.802e-02,-1.06,-1.14
1.804e-02,-0.9,-0.78
1.806e-02,-0.86,-1.12
1.808e-02,-0.96,-0.82
1.810e-02,-0.96,-1.08
1.812e-02,-0.88,-0.74
1.814e-02,-1,-1.18
1.816e-02,-0.92,-0.76
1.818e-02,-0.98,-1.12
1.820e-02,-0.86,-0.74
1.822e-02,-0.86,-1.22
1.824e-02,-0.94,-0.8
1.825e-02,-1.14,-1.22
1.827e-02,-0.86,-0.66
1.829e-02,-0.9,-1.12
1.831e-02,-1,-0.78
1.833e-02,-0.94,-1.1
1.835e-02,-0.96,-0.84
1.837e-02,-0.94,-1.22
1.839e-02,-1,-0.86
1.841e-02,-0.92,-1.16
1.843e-02,-1.14,-0.86
1.845e-02,-0.98,-1.14
1.847e-02,-0.98,-0.8
1.849e-02,-0.98,-1.16
1.850e-02,-0.98,-0.76
1.852e-02,-1.1,-1.16
1.854e-02,-0.92,-0.82
1.856e-02,-1.02,-1.2
1.858e-02,-1,-0.82
1.860e-02,-0.88,-1.2
1.862e-02,-1.04,-0.86
1.864e-02,-0.94,-1.16
1.866e-02,-0.94,-0.82
1.868e-02,-0.96,-1.12
1.870e-02,-0.9,-0.84
1.872e-02,-1.02,-1.18
1.873e-02,-1.12,-0.78
1.875e-02,-0.96,-1.04
1.877e-02,-0.92,-0.8
1.879e-02,-0.84,-1.16
1.881e-02,-0.98,-0.78
1.883e-02,-1.12,-1.16
1.885e-02,-0.92,-0.82
1.887e-02,-1.02,-1.18
1.889e-02,-0.94,-0.76
1.891e-02,-1.02,-1.12
1.893e-02,-0.98,-0.86
1.895e-02,-0.88,-1.08
1.897e-02,-0.9,-0.74
1.898e-02,-0.84,-1.06
1.900e-02,-0.96,-0.8
1.902e-02,-1.04,-1.2
1.904e-02,-0.98,-0.8
1.906e-02,-0.88,-1.14
1.908e-02,-0.92,-0.78
1.910e-02,-0.92,-1.14
1.912e-02,-1.12,-0.84
1.914e-02,-0.96,-1.1
1.916e-02,-0.92,-0.64
1.918e-02,-0.86,-1.1
1.920e-02,-0.88,-0.74
1.921e-02,-0.98,-1.06
1.923e-02,-0.9,-0.72
1.925e-02,-0.98,-1.12
1.927e-02,-1.02,-0.84
1.929e-02,-0.92,-1.12
1.931e-02,-1.08,-0.84
1.933e-02,-0.88,-1.16
1.935e-02,-0.98,-0.8
1.937e-02,-1.04,-1.12
1.939e-02,-0.92,-0.82
1.941e-02,-1.02,-1.14
1.943e-02,-0.82,-0.74
1.945e-02,-0.92,-1.08
1.946e-02,-1,-0.82
1.948e-02,-0.92,-1.22
1.950e-02,-1.22,-0.9
1.952e-02,-1.14,-1.24
1.954e-02,-0.94,-0.86
1.956e-02,-1.02,-1.1
1.958e-02,-0.92,-0.76
1.960e-02,-0.84,-1.12
1.962e-02,-1.02,-0.78
1.964e-02,-0.98,-1.16
1.966e-02,-1.1,-0.84
1.968e-02,-0.92,-1.12
1.969e-02,-1.04,-0.74
1.971e-02,-0.78,-1.18
1.973e-02,-1,-0.68
1.975e-02,-0.9,-1.18
1.977e-02,-0.92,-0.78
1.979e-02,-1,-1.12
1.981e-02,-1.08,-0.84
1.983e-02,-0.94,-1.04
1.985e-02,-0.9,-0.76
1.987e-02,-1.02,-1.12
1.989e-02,-0.92,-0.74
1.991e-02,-0.98,-1.06
1.993e-02,-0.82,-0.76
1.994e-02,-0.94,-1.14
1.996e-02,-0.98,-0.82
1.998e-02,-0.94,-1.16
2.000e-02,-1.04,-0.72
2.002e-02,-0.96,-1.12
2.004e-02,-1,-0.72
2.006e-02,-0.86,-1.1
2.008e-02,-0.94,-0.68
2.010e-02,-1.06,-1.1
2.012e-02,-0.96,-0.76
2.014e-02,-0.94,-1.16
2.016e-02,-0.98,-0.8
2.017e-02,-0.92,-1.14
2.019e-02,-1.04,-0.8
2.021e-02,-0.94,-1.08
2.023e-02,-0.86,-0.74
2.025e-02,-0.88,-1.08
2.027e-02,-0.9,-0.78
2.029e-02,-1,-1.16
2.031e-02,-1,-0.84
2.033e-02,-0.96,-1.12
2.035e-02,-1.06,-0.84
2.037e-02,-0.9,-1.08
2.039e-02,-1.02,-0.82
2.041e-02,-1.04,-1.12
2.042e-02,-0.94,-0.74
2.044e-02,-0.96,-1.1
2.046e-02,-0.92,-0.8
2.048e-02,-1.02,-1.18
2.050e-02,-0.96,-0.86
2.052e-02,-0.88,-1.04
2.054e-02,-0.92,-0.76
2.056e-02,-0.86,-1.12
2.058e-02,-0.9,-0.76
2.060e-02,-0.94,-1.14
2.062e-02,-0.94,-0.82
2.064e-02,-1.08,-1.1
2.065e-02,-1,-0.78
2.067e-02,-0.8,-1.14
2.069e-02,-1,-0.76
2.071e-02,-0.74,-1.02
2.073e-02,-0.96,-0.64
2.075e-02,-0.96,-1.02
2.077e-02,-0.94,-0.78
2.079e-02,-0.96,-1.12
2.081e-02,-0.88,-0.78
2.083e-02,-0.82,-1.12
2.085e-02,-1.04,-0.7
2.087e-02,-0.8,-1.16
2.089e-02,-0.92,-0.76
2.090e-02,-0.92,-1.08
2.092e-02,-0.88,-0.78
2.094e-02,-0.94,-1.08
2.096e-02,-0.96,-0.78
2.098e-02,-1.08,-1.12
2.100e-02,-0.96,-0.74
2.102e-02,-0.78,-1.12
2.104e-02,-0.94,-0.72
2.106e-02,-1.06,-1.14
2.108e-02,-0.96,-0.72
2.110e-02,-0.96,-1.14
2.112e-02,-0.88,-0.8
2.113e-02,-0.96,-1.12
2.115e-02,-0.9,-0.78
2.117e-02,-1.02,-1.12
2.119e-02,-0.96,-0.76
2.121e-02,-0.98,-1.08
2.123e-02,-0.92,-0.7
2.125e-02,-0.86,-1.12
2.127e-02,-1.06,-0.8
2.129e-02,-1.06,-1.12
2.131e-02,-0.9,-0.8
2.133e-02,-1.08,-1.14
2.135e-02,-0.82,-0.78
2.137e-02,-0.98,-1.1
2.138e-02,-0.88,-0.74
2.140e-02,-0.94,-1.12
2.142e-02,-1,-0.84
2.144e-02,-1.06,-1.12
2.146e-02,-0.94,-0.8
2.148e-02,-1,-1.1
2.150e-02,-0.96,-0.74
2.152e-02,-0.96,-1.12
2.154e-02,-0.94,-0.8
2.156e-02,-1.08,-1.16
2.158e-02,-1.1,-0.78
2.160e-02,-0.9,-1.06
2.161e-02,-0.9,-0.78
2.163e-02,-1,-1.16
2.165e-02,-0.96,-0.9
2.167e-02,-1.02,-1.06
2.169e-02,-0.86,-0.8
2.171e-02,-0.96,-1.08
2.173e-02,-0.96,-0.8
2.175e-02,-0.92,-1.08
2.177e-02,-1.04,-0.76
2.179e-02,-0.82,-1.16
2.181e-02,-1.04,-0.76
2.183e-02,-0.92,-1.12
2.185e-02,-0.9,-0.78
2.186e-02,-0.92,-1.06
2.188e-02,-0.86,-0.82
2.190e-02,-0.88,-1.12
2.192e-02,-1,-0.8
2.194e-02,-0.88,-1.1
2.196e-02,-1.02,-0.76
2.198e-02,-1.1,-1.16
2.200e-02,-0.96,-0.78
2.202e-02,-1.02,-1.18
2.204e-02,-0.92,-0.82
2.206e-02,-0.9,-1.1
2.208e-02,-1,-0.8
2.209e-02,-0.98,-1.14
2.211e-02,-0.94,-0.82
2.213e-02,-1,-1.1
2.215e-02,-0.98,-0.8
2.217e-02,-0.94,-1.12
2.219e-02,-0.8,-0.78
2.221e-02,-1.04,-1.18
2.223e-02,-1.04,-0.78
2.225e-02,-0.92,-1.12
2.227e-02,-1.1,-0.82
2.229e-02,-0.88,-1.14
2.231e-02,-0.92,-0.74
2.233e-02,-1,-1.1
2.234e-02,-0.96,-0.78
2.236e-02,-0.9,-1.12
2.238e-02,-0.96,-0.76
2.240e-02,-0.9,-1.16
2.242e-02,-1,-0.76
2.244e-02,-1.06,-1.16
2.246e-02,-0.98,-0.86
2.248e-02,-0.98,-1.14
2.250e-02,-1.02,-0.76
2.252e-02,-1,-1.16
2.254e-02,-0.94,-0.82
2.256e-02,-0.94,-1.18
2.257e-02,-0.86,-0.82
2.259e-02,-1.14,-1.2
2.261e-02,-0.92,-0.8
2.263e-02,-0.98,-1.12
2.265e-02,-1.02,-0.82
2.267e-02,-1.02,-1.14
2.269e-02,-0.94,-0.82
2.271e-02,-0.98,-1.16
2.273e-02,-0.94,-0.84
2.275e-02,-1,-1.12
2.277e-02,-1,-0.84
2.279e-02,-0.94,-1.02
2.281e-02,-0.96,-0.74
2.282e-02,-0.86,-1.12
2.284e-02,-0.9,-0.76
2.286e-02,-0.96,-1.08
2.288e-02,-0.84,-0.72
2.290e-02,-0.92,-1.14
2.292e-02,-0.88,-0.76
2.294e-02,-0.88,-1.1
2.296e-02,-1.06,-0.8
2.298e-02,-0.88,-1.14
2.300e-02,-1.04,-0.8
2.302e-02,-0.88,-1.12
2.304e-02,-0.94,-0.7
2.305e-02,-1.02,-1.14
2.307e-02,-1,-0.8
2.309e-02,-0.86,-1.14
2.311e-02,-1.02,-0.78
2.313e-02,-0.98,-1.16
2.315e-02,-1,-0.8
2.317e-02,-0.98,-1.2
2.319e-02,-0.9,-0.78
2.321e-02,-1.14,-1.2
2.323e-02,-1.02,-0.8
2.325e-02,-0.92,-1.1
2.327e-02,-0.96,-0.84
2.329e-02,-0.92,-1.1
2.330e-02,-0.98,-0.82
2.332e-02,-0.84,-1.08
2.334e-02,-1.04,-0.78
2.336e-02,-0.84,-1.04
2.338e-02,-0.88,-0.74
2.340e-02,-0.98,-1.16
2.342e-02,-1.02,-0.88
2.344e-02,-0.94,-1.22
2.346e-02,-1,-0.78
2.348e-02,-0.94,-1.16
2.350e-02,-0.94,-0.78
2.352e-02,-0.92,-1.06
2.353e-02,-0.88,-0.76
2.355e-02,-0.98,-1.14
2.357e-02,-0.98,-0.88
2.359e-02,-0.96,-1.12
2.361e-02,-0.72,-0.68
2.363e-02,-1,-1.18
2.365e-02,-1.04,-0.82
2.367e-02,-0.98,-1.12
2.369e-02,-0.98,-0.88
2.371e-02,-0.96,-1.08
2.373e-02,-0.94,-0.78
2.375e-02,-1,-1.08
2.377e-02,-1,-0.8
2.378e-02,-1.02,-1.16
2.380e-02,-1.02,-0.84
2.382e-02,-0.88,-1.1
2.384e-02,-1.04,-0.82
2.386e-02,-0.9,-1.16
2.388e-02,-0.98,-0.76
2.390e-02,-1.04,-1.1
2.392e-02,-0.98,-0.84
2.394e-02,-1.06,-1.14
2.396e-02,-0.98,-0.82
2.398e-02,-1.04,-1.18
2.400e-02,-1.06,-0.78
2.401e-02,-0.92,-1.12
2.403e-02,-0.92,-0.8
2.405e-02,-1.06,-1.16
2.407e-02,-1,-0.8
2.409e-02,-1.02,-1.16
2.411e-02,-0.92,-0.84
2.413e-02,-1.08,-1.14
2.415e-02,-0.96,-0.82
2.417e-02,-0.92,-1.1
2.419e-02,-0.94,-0.78
2.421e-02,-0.9,-1.14
2.423e-02,-1.08,-0.8
2.425e-02,-0.94,-1.2
2.426e-02,-0.86,-0.8
2.428e-02,-1.14,-1.18
2.430e-02,-0.94,-0.8
2.432e-02,-0.92,-1.06
2.434e-02,-0.9,-0.76
2.436e-02,-0.98,-1.06
2.438e-02,-0.9,-0.8
2.440e-02,-0.98,-1.12
2.442e-02,-1.02,-0.74
2.444e-02,-1.08,-1.12
2.446e-02,-1.02,-0.82
2.448e-02,-0.92,-1.12
2.450e-02,-0.96,-0.82
2.451e-02,-0.94,-1.08
2.453e-02,-0.92,-0.78
2.455e-02,-0.98,-1.14
2.457e-02,-1.06,-0.72
2.459e-02,-0.96,-1.1
2.461e-02,-1.04,-0.8
2.463e-02,-1.04,-1.12
2.465e-02,-0.98,-0.82
2.467e-02,-1.02,-1.08
2.469e-02,-0.98,-0.72
2.471e-02,-0.86,-1.12
2.473e-02,-1.04,-0.76
2.474e-02,-1,-1.12
2.476e-02,-1,-0.86
2.478e-02,-1,-1.08
2.480e-02,-0.94,-0.82
2.482e-02,-0.98,-1.12
2.484e-02,-0.94,-0.78
2.486e-02,-1.04,-1.2
2.488e-02,-1.18,-0.78
2.490e-02,-1,-1.12
2.492e-02,-0.96,-0.88
2.494e-02,-0.94,-1.16
2.496e-02,-0.98,-0.76
2.498e-02,-0.98,-1.14
2.499e-02,-0.94,-0.78
2.501e-02,-0.98,-1.12
2.503e-02,-0.94,-0.76
2.505e-02,-0.94,-1.12
2.507e-02,-1,-0.76
2.509e-02,-1.06,-1.16
2.511e-02,-0.94,-0.82
2.513e-02,-0.98,-1.24
2.515e-02,-1,-0.84
2.517e-02,-0.88,-1.18
2.519e-02,-0.94,-0.74
2.521e-02,-1.02,-1.2
2.522e-02,-0.96,-0.84
2.524e-02,-0.9,-1.16
2.526e-02,-0.88,-0.82
2.528e-02,-0.9,-1.1
2.530e-02,-0.92,-0.78
2.532e-02,-0.96,-1.1
2.534e-02,-0.94,-0.8
2.536e-02,-0.98,-1.08
2.538e-02,-1,-0.78
2.540e-02,-0.88,-1.2
2.542e-02,-0.9,-0.76
2.544e-02,-1.06,-1.16
2.546e-02,-0.96,-0.82
2.547e-02,-0.92,-1.12
2.549e-02,-1.04,-0.84
2.551e-02,-1,-1.08
2.553e-02,-0.74,-0.68
2.555e-02,-0.98,-1.12
2.557e-02,-0.94,-0.84
2.559e-02,-0.94,-1.16
2.561e-02,-1,-0.84
2.563e-02,-0.98,-1.1
2.565e-02,-0.9,-0.8
2.567e-02,-0.94,-1.08
2.569e-02,-0.9,-0.76
2.570e-02,-0.88,-1.12
2.572e-02,-1.02,-0.8
2.574e-02,-0.94,-1.12
2.576e-02,-1.04,-0.8
2.578e-02,-0.86,-1.1
2.580e-02,-0.88,-0.78
2.582e-02,-1.04,-1.16
2.584e-02,-0.94,-0.74
2.586e-02,-0.94,-1.12
2.588e-02,-0.92,-0.82
2.590e-02,-1,-1.14
2.592e-02,-0.94,-0.86
2.594e-02,-1.04,-1.14
2.595e-02,-0.92,-0.76
2.597e-02,-0.96,-1.2
2.599e-02,-0.88,-0.76
2.601e-02,-1,-1.1
2.603e-02,-0.74,-0.74
2.605e-02,-0.94,-1.1
2.607e-02,-0.94,-0.82
2.609e-02,-0.98,-1.18
2.611e-02,-0.98,-0.8
2.613e-02,-0.84,-1.1
2.615e-02,-0.96,-0.78
2.617e-02,-0.86,-1.08
2.618e-02,-0.88,-0.8
2.620e-02,-0.92,-1.04
2.622e-02,-0.94,-0.78
2.624e-02,-0.9,-1.2
2.626e-02,-0.98,-0.8
2.628e-02,-1,-1.12
2.630e-02,-0.92,-0.72
2.632e-02,-0.86,-1.14
2.634e-02,-1,-0.76
2.636e-02,-1,-1.12
2.638e-02,-0.8,-0.78
2.640e-02,-0.94,-1.12
2.642e-02,-0.96,-0.8
2.643e-02,-1.02,-1.18
2.645e-02,-1,-0.78
2.647e-02,-0.82,-1.2
2.649e-02,-1.02,-0.78
2.651e-02,-0.96,-1.12
2.653e-02,-0.98,-0.74
2.655e-02,-0.98,-1.14
2.657e-02,-0.92,-0.78
2.659e-02,-1.12,-1.18
2.661e-02,-1.02,-0.86
2.663e-02,-0.98,-1.12
2.665e-02,-0.96,-0.76
2.666e-02,-0.98,-1.08
2.668e-02,-1.02,-0.72
2.670e-02,-0.9,-1.14
2.672e-02,-0.88,-0.82
2.674e-02,-1.08,-1.2
2.676e-02,-1.08,-0.86
2.678e-02,-0.88,-1.1
2.680e-02,-1,-0.76
2.682e-02,-0.84,-1.1
2.684e-02,-0.86,-0.78
2.686e-02,-1,-1.08
2.688e-02,-0.94,-0.76
2.690e-02,-1.06,-1.18
2.691e-02,-1.04,-0.78
2.693e-02,-0.98,-1.1
2.695e-02,-0.94,-0.8
2.697e-02,-0.86,-1.08
2.699e-02,-0.82,-0.74
2.701e-02,-0.94,-1.16
2.703e-02,-0.96,-0.84
2.705e-02,-0.94,-1.16
2.707e-02,-1.04,-0.84
2.709e-02,-0.96,-1.12
2.711e-02,-0.98,-0.8
2.713e-02,-0.9,-1.14
2.714e-02,-0.98,-0.7
2.716e-02,-1,-1.1
2.718e-02,-0.96,-0.7
2.720e-02,-1.02,-1.18
2.722e-02,-0.82,-0.76
2.724e-02,-0.98,-1.14
2.726e-02,-1,-0.9
2.728e-02,-1,-1.16
2.730e-02,-0.9,-0.8
2.732e-02,-0.92,-1.12
2.734e-02,-0.96,-0.8
2.736e-02,-0.96,-1.06
2.738e-02,-0.84,-0.76
2.739e-02,-1.08,-1.12
2.741e-02,-1.02,-0.8
2.743e-02,-0.94,-1.06
2.745e-02,-0.98,-0.78
2.747e-02,-1.02,-1.12
2.749e-02,-0.92,-0.76
2.751e-02,-1.02,-1.16
2.753e-02,-0.9,-0.78
2.755e-02,-0.98,-1.12
2.757e-02,-0.9,-0.76
2.759e-02,-1.02,-1.08
2.761e-02,-0.8,-0.76
2.762e-02,-0.94,-1.2
2.764e-02,-1,-0.74
2.766e-02,-0.84,-1.1
2.768e-02,-0.92,-0.74
2.770e-02,-0.9,-1.12
2.772e-02,-0.94,-0.78
2.774e-02,-0.96,-1.12
2.776e-02,-0.94,-0.84
2.778e-02,-1.04,-1.16
2.780e-02,-0.94,-0.86
2.782e-02,-0.9,-1.1
2.784e-02,-0.92,-0.84
2.786e-02,-0.96,-1.16
2.787e-02,-1.06,-0.8
2.789e-02,-1.04,-1.18
2.791e-02,-0.9,-0.8
2.793e-02,-1.08,-1.16
2.795e-02,-0.96,-0.82
2.797e-02,-1.02,-1.12
2.799e-02,-0.98,-0.78
2.801e-02,-0.88,-1.14
2.803e-02,-0.98,-0.76
2.805e-02,-1,-1.12
2.807e-02,-1.02,-0.8
2.809e-02,-1,-1.08
2.810e-02,-0.92,-0.84
2.812e-02,-1,-1.1
2.814e-02,-0.76,-0.76
2.816e-02,-1.02,-1.16
2.818e-02,-0.98,-0.8
2.820e-02,-0.84,-1.14
2.822e-02,-0.98,-0.8
2.824e-02,-0.96,-1.14
2.826e-02,-1,-0.76
2.828e-02,-1,-1.1
2.830e-02,-0.94,-0.76
2.832e-02,-0.96,-1.08
2.834e-02,-0.8,-0.76
2.835e-02,-0.96,-1.14
2.837e-02,-1.02,-0.82
2.839e-02,-1.04,-1.14
2.841e-02,-0.88,-0.8
2.843e-02,-0.96,-1.08
2.845e-02,-0.92,-0.74
2.847e-02,-0.94,-1.12
2.849e-02,-1,-0.78
2.851e-02,-0.92,-1.06
2.853e-02,-0.88,-0.7
2.855e-02,-0.98,-1.12
2.857e-02,-0.98,-0.76
2.858e-02,-0.92,-1.16
2.860e-02,-0.94,-0.78
2.862e-02,-0.96,-1.1
2.864e-02,-0.96,-0.78
2.866e-02,-0.92,-1.1
2.868e-02,-0.92,-0.78
2.870e-02,-0.92,-1.12
2.872e-02,-1.06,-0.8
2.874e-02,-0.9,-1.04
2.876e-02,-0.96,-0.74
2.878e-02,-0.98,-1.1
2.880e-02,-0.94,-0.82
2.882e-02,-1.04,-1.16
2.883e-02,-0.86,-0.76
2.885e-02,-0.94,-1.14
2.887e-02,-0.98,-0.84
2.889e-02,-0.96,-1.24
2.891e-02,-0.94,-0.8
2.893e-02,-0.98,-1.2
2.895e-02,-1.04,-0.82
2.897e-02,-0.98,-1.14
2.899e-02,-0.84,-0.76
2.901e-02,-1,-1.1
2.903e-02,-1,-0.8
2.905e-02,-1.02,-1.18
2.906e-02,-1,-0.82
2.908e-02,-1.14,-1.22
2.910e-02,-1.1,-0.84
2.912e-02,-1.06,-1.18
2.914e-02,-0.9,-0.82
2.916e-02,-1.02,-1.18
2.918e-02,-0.98,-0.76
2.920e-02,-0.9,-1.14
2.922e-02,-0.98,-0.82
2.924e-02,-0.98,-1.1
2.926e-02,-0.98,-0.8
2.928e-02,-0.94,-1.04
2.930e-02,-0.92,-0.82
2.931e-02,-0.98,-1.16
2.933e-02,-1,-0.8
2.935e-02,-0.92,-1.06
2.937e-02,-0.88,-0.76
2.939e-02,-0.96,-1.08
2.941e-02,-0.92,-0.86
2.943e-02,-0.88,-1.1
2.945e-02,-0.98,-0.82
2.947e-02,-0.86,-1.08
2.949e-02,-0.98,-0.76
2.951e-02,-1.08,-1.1
2.953e-02,-0.94,-0.8
2.954e-02,-1.08,-1.18
2.956e-02,-1.04,-0.82
2.958e-02,-0.98,-1.16
2.960e-02,-0.98,-0.84
2.962e-02,-0.88,-1.18
2.964e-02,-1.06,-0.82
2.966e-02,-0.92,-1.12
2.968e-02,-0.86,-0.76
2.970e-02,-0.96,-1.14
2.972e-02,-0.92,-0.8
2.974e-02,-0.94,-1.1
2.976e-02,-0.98,-0.78
2.978e-02,-0.82,-1.06
2.979e-02,-0.9,-0.78
2.981e-02,-0.92,-1.12
2.983e-02,-0.96,-0.8
2.985e-02,-1.06,-1.12
2.987e-02,-0.9,-0.82
2.989e-02,-1,-1.08
2.991e-02,-0.84,-0.8
2.993e-02,-0.92,-1.04
2.995e-02,-0.96,-0.76
2.997e-02,-0.9,-1.06
2.999e-02,-0.88,-0.8
3.001e-02,-0.94,-1.16
3.002e-02,-0.92,-0.8
3.004e-02,-1.02,-1.18
3.006e-02,-0.88,-0.86
3.008e-02,-0.92,-1.1
3.010e-02,-0.88,-0.78
3.012e-02,-0.96,-1.12
3.014e-02,-0.96,-0.82
3.016e-02,-0.94,-1.1
3.018e-02,-0.9,-0.74
3.020e-02,-0.94,-1.16
3.022e-02,-0.94,-0.84
3.024e-02,-0.92,-1.08
3.026e-02,-1,-0.82
3.027e-02,-0.96,-1.1
3.029e-02,-0.92,-0.82
3.031e-02,-0.96,-1.1
3.033e-02,-0.92,-0.78
3.035e-02,-1.02,-1.16
3.037e-02,-0.96,-0.78
3.039e-02,-1.02,-1.16
3.041e-02,-0.82,-0.72
3.043e-02,-0.94,-1.16
3.045e-02,-0.86,-0.74
3.047e-02,-0.9,-1.1
3.049e-02,-1.04,-0.82
3.051e-02,-0.84,-1.08
3.052e-02,-0.92,-0.8
3.054e-02,-0.98,-1.2
3.056e-02,-0.9,-0.82
3.058e-02,-1.12,-1.14
3.060e-02,-0.94,-0.82
3.062e-02,-0.94,-1.16
3.064e-02,-1.02,-0.78
3.066e-02,-0.94,-1.22
3.068e-02,-1,-0.8
3.070e-02,-1.08,-1.18
3.072e-02,-1,-0.8
3.074e-02,-0.9,-1.14
3.075e-02,-0.96,-0.8
3.077e-02,-0.98,-1.14
3.079e-02,-0.98,-0.8
3.081e-02,-0.9,-1.12
3.083e-02,-0.98,-0.78
3.085e-02,-0.98,-1.14
3.087e-02,-1.02,-0.82
3.089e-02,-1.02,-1.18
3.091e-02,-1.04,-0.78
3.093e-02,-0.9,-1.06
3.095e-02,-0.92,-0.76
3.097e-02,-0.88,-1.12
3.099e-02,-1.04,-0.76
3.100e-02,-0.82,-1.08
3.102e-02,-1.04,-0.78
3.104e-02,-1,-1.12
3.106e-02,-0.94,-0.84
3.108e-02,-0.98,-1.16
3.110e-02,-0.88,-0.7
3.112e-02,-0.98,-1.16
3.114e-02,-1.1,-0.8
3.116e-02,-0.96,-1.2
3.118e-02,-0.96,-0.84
3.120e-02,-0.94,-1.12
3.122e-02,-0.98,-0.74
3.123e-02,-0.82,-1.2
3.125e-02,-0.9,-0.72
3.127e-02,-1,-1.06
3.129e-02,-0.94,-0.76
3.131e-02,-0.82,-1.12
3.133e-02,-0.94,-0.76
3.135e-02,-0.88,-1.08
3.137e-02,-0.98,-0.7
3.139e-02,-0.9,-1.12
3.141e-02,-1.06,-0.84
3.143e-02,-1.02,-1.2
3.145e-02,-0.9,-0.84
3.147e-02,-0.98,-1.04
3.148e-02,-0.96,-0.78
3.150e-02,-0.9,-1.16
3.152e-02,-0.98,-0.82
3.154e-02,-0.86,-1.14
3.156e-02,-1.06,-0.82
3.158e-02,-1.06,-1.14
3.160e-02,-0.96,-0.8
3.162e-02,-0.86,-1.06
3.164e-02,-0.96,-0.78
3.166e-02,-0.94,-1.12
3.168e-02,-1.04,-0.8
3.170e-02,-0.88,-1.14
3.171e-02,-0.94,-0.78
3.173e-02,-0.78,-1.12
3.175e-02,-0.88,-0.76
3.177e-02,-1,-1.08
3.179e-02,-0.86,-0.72
3.181e-02,-0.98,-1.1
3.183e-02,-0.92,-0.72
3.185e-02,-0.98,-1.06
3.187e-02,-1,-0.78
3.189e-02,-0.9,-1.06
3.191e-02,-0.98,-0.78
3.193e-02,-0.94,-1.06
3.195e-02,-0.9,-0.74
3.196e-02,-0.98,-1.06
3.198e-02,-0.9,-0.8
3.200e-02,-0.98,-1.14
3.202e-02,-1.06,-0.9
3.204e-02,-1,-1.14
3.206e-02,-1.08,-0.78
3.208e-02,-1,-1.18
3.210e-02,-1.12,-0.82
3.212e-02,-0.86,-1.08
3.214e-02,-0.82,-0.8
3.216e-02,-1.04,-1.14
3.218e-02,-0.86,-0.82
3.219e-02,-1,-1.16
3.221e-02,-1.04,-0.86
3.223e-02,-1.06,-1.14
3.225e-02,-0.96,-0.76
3.227e-02,-0.88,-1.16
3.229e-02,-0.94,-0.8
3.231e-02,-0.92,-1.12
3.233e-02,-0.9,-0.84
3.235e-02,-1.12,-1.2
3.237e-02,-1.02,-0.96
3.239e-02,-0.98,-1.08
3.241e-02,-0.9,-0.8
3.243e-02,-0.94,-1.1
3.244e-02,-0.98,-0.8
3.246e-02,-0.9,-1.1
3.248e-02,-0.98,-0.82
3.250e-02,-1.02,-1.12
3.252e-02,-0.92,-0.84
3.254e-02,-0.96,-1.1
3.256e-02,-1.02,-0.68
3.258e-02,-0.88,-1.16
3.260e-02,-1,-0.8
3.262e-02,-0.92,-1.18
3.264e-02,-0.96,-0.84
3.266e-02,-0.94,-1.12
3.267e-02,-0.98,-0.78
3.269e-02,-0.96,-1.1
3.271e-02,-0.94,-0.86
3.273e-02,-0.98,-1.06
3.275e-02,-0.98,-0.72
3.277e-02,-0.86,-1.12
3.279e-02,-0.98,-0.72
3.281e-02,-0.96,-1.1
3.283e-02,-0.92,-0.74
3.285e-02,-0.92,-1.2
3.287e-02,-0.96,-0.84
3.289e-02,-0.92,-1.12
3.291e-02,-0.98,-0.82
3.292e-02,-0.98,-1.08
3.294e-02,-1.02,-0.78
3.296e-02,-0.98,-1.1
3.298e-02,-1,-0.86
3.300e-02,-1,-1.08
3.302e-02,-0.96,-0.8
3.304e-02,-1,-1.16
3.306e-02,-0.82,-0.76
3.308e-02,-1.1,-1.2
3.310e-02,-0.96,-0.82
3.312e-02,-0.96,-1.14
3.314e-02,-1.06,-0.88
3.315e-02,-1.1,-1.16
3.317e-02,-0.94,-0.88
3.319e-02,-0.96,-1.12
3.321e-02,-1.04,-0.8
3.323e-02,-0.98,-1.08
3.325e-02,-1,-0.74
3.327e-02,-0.86,-1.08
3.329e-02,-0.92,-0.78
3.331e-02,-0.94,-1.1
3.333e-02,-0.92,-0.8
3.335e-02,-0.9,-1.12
3.337e-02,-1,-0.78
3.339e-02,-1,-1.14
3.340e-02,-0.82,-0.76
3.342e-02,-1.02,-1.16
3.344e-02,-0.96,-0.84
3.346e-02,-0.88,-1.06
3.348e-02,-0.96,-0.76
3.350e-02,-0.84,-1.12
3.352e-02,-0.94,-0.78
3.354e-02,-0.96,-1.14
3.356e-02,-0.94,-0.78
3.358e-02,-0.88,-1.12
3.360e-02,-0.9,-0.78
3.362e-02,-1.08,-1.16
3.363e-02,-1.04,-0.82
3.365e-02,-0.96,-1.14
3.367e-02,-0.98,-0.72
3.369e-02,-0.82,-1.1
3.371e-02,-0.92,-0.76
3.373e-02,-1.04,-1.12
3.375e-02,-0.84,-0.78
3.377e-02,-0.94,-1.08
3.379e-02,-0.86,-0.7
3.381e-02,-0.92,-1.1
3.383e-02,-1,-0.76
3.385e-02,-0.86,-1.12
3.387e-02,-0.98,-0.8
3.388e-02,-0.86,-1.12
3.390e-02,-1,-0.78
3.392e-02,-0.98,-1.18
3.394e-02,-0.98,-0.8
3.396e-02,-0.96,-1.1
3.398e-02,-1.06,-0.8
3.400e-02,-0.88,-1.14
3.402e-02,-1,-0.8
3.404e-02,-0.84,-1.1
3.406e-02,-0.96,-0.78
3.408e-02,-0.94,-1.04
3.410e-02,-0.9,-0.76
3.411e-02,-0.94,-1.16
3.413e-02,-0.9,-0.74
3.415e-02,-0.88,-1.18
3.417e-02,-1.14,-0.84
3.419e-02,-0.98,-1.1
3.421e-02,-1.04,-0.82
3.423e-02,-0.96,-1.12
3.425e-02,-0.94,-0.8
3.427e-02,-0.94,-1.18
3.429e-02,-0.94,-0.76
3.431e-02,-0.92,-1.16
3.433e-02,-1.04,-0.84
3.435e-02,-0.9,-1.14
3.436e-02,-1,-0.82
3.438e-02,-0.92,-1.06
3.440e-02,-0.96,-0.82
3.442e-02,-1.04,-1.12
3.444e-02,-0.86,-0.72
3.446e-02,-1.12,-1.14
3.448e-02,-1,-0.8
3.450e-02,-1.02,-1.14
3.452e-02,-0.96,-0.74
3.454e-02,-0.86,-1.1
3.456e-02,-1,-0.84
3.458e-02,-0.96,-1.14
3.459e-02,-1,-0.72
3.461e-02,-0.98,-1.08
3.463e-02,-0.96,-0.84
3.465e-02,-0.94,-1.18
3.467e-02,-1,-0.78
3.469e-02,-1,-1.12
3.471e-02,-1.04,-0.76
3.473e-02,-0.9,-1.1
3.475e-02,-0.98,-0.8
3.477e-02,-0.96,-1.1
3.479e-02,-0.88,-0.72
3.481e-02,-0.96,-1.14
3.483e-02,-1.02,-0.78
3.484e-02,-0.98,-1.1
3.486e-02,-1,-0.8
3.488e-02,-0.92,-1.02
3.490e-02,-0.9,-0.76
3.492e-02,-1,-1.12
3.494e-02,-0.86,-0.82
3.496e-02,-1,-1.08
3.498e-02,-0.96,-0.8
3.500e-02,-0.96,-1.14
3.502e-02,-0.94,-0.82
3.504e-02,-0.92,-1.2
3.506e-02,-1.02,-0.84
3.507e-02,-1,-1.12
3.509e-02,-0.94,-0.8
3.511e-02,-0.94,-1.1
3.513e-02,-0.98,-0.76
3.515e-02,-0.92,-1.08
3.517e-02,-0.92,-0.8
3.519e-02,-0.96,-1.16
3.521e-02,-1.06,-0.8
3.523e-02,-0.82,-1.04
3.525e-02,-1,-0.72
3.527e-02,-0.86,-1.08
3.529e-02,-0.96,-0.74
3.531e-02,-0.98,-1.16
3.532e-02,-0.92,-0.86
3.534e-02,-1.08,-1.14
3.536e-02,-1.06,-0.84
3.538e-02,-0.94,-1.14
3.540e-02,-1.02,-0.76
3.542e-02,-0.82,-1.12
3.544e-02,-0.96,-0.8
3.546e-02,-1.02,-1.12
3.548e-02,-0.92,-0.86
3.550e-02,-1.14,-1.16
3.552e-02,-0.94,-0.82
3.554e-02,-0.84,-1.08
3.555e-02,-1.02,-0.74
3.557e-02,-0.94,-1.14
3.559e-02,-0.98,-0.76
3.561e-02,-1.06,-1.12
3.563e-02,-0.88,-0.8
3.565e-02,-0.96,-1.2
3.567e-02,-0.9,-0.84
3.569e-02,-0.98,-1.14
3.571e-02,-1.1,-0.74
3.573e-02,-0.82,-1.1
3.575e-02,-1,-0.78
3.577e-02,-0.94,-1.1
3.579e-02,-0.92,-0.86
3.580e-02,-1.08,-1.22
3.582e-02,-0.9,-0.78
3.584e-02,-0.92,-1.12
3.586e-02,-0.9,-0.8
3.588e-02,-1,-1.22
3.590e-02,-1.06,-0.72
3.592e-02,-0.7,-1.08
3.594e-02,-1,-0.66
3.596e-02,-0.84,-1.16
3.598e-02,-1.08,-0.76
3.600e-02,-1.06,-1.14
3.602e-02,-0.86,-0.8
3.603e-02,-0.96,-1.16
3.605e-02,-1.04,-0.74
3.607e-02,-0.86,-1.16
3.609e-02,-1,-0.78
3.611e-02,-1.06,-1.14
3.613e-02,-1.02,-0.84
3.615e-02,-0.92,-1.14
3.617e-02,-1,-0.8
3.619e-02,-1,-1.12
3.621e-02,-0.96,-0.8
3.623e-02,-0.92,-1.06
3.625e-02,-0.96,-0.72
3.627e-02,-0.96,-1.16
3.628e-02,-0.96,-0.74
3.630e-02,-1.06,-1.14
3.632e-02,-1,-0.82
3.634e-02,-0.96,-1.12
3.636e-02,-0.9,-0.84
3.638e-02,-0.96,-1.08
3.640e-02,-0.98,-0.76
3.642e-02,-0.9,-1.08
3.644e-02,-0.98,-0.78
3.646e-02,-0.96,-1.14
3.648e-02,-1,-0.82
3.650e-02,-0.94,-1.12
3.651e-02,-0.86,-0.82
3.653e-02,-0.94,-1.06
3.655e-02,-0.88,-0.82
3.657e-02,-0.92,-1.16
3.659e-02,-0.88,-0.78
3.661e-02,-1.02,-1.16
3.663e-02,-0.98,-0.8
3.665e-02,-0.84,-1.2
3.667e-02,-0.88,-0.8
3.669e-02,-1.08,-1.16
3.671e-02,-0.98,-0.82
3.673e-02,-0.96,-1.16
3.675e-02,-1,-0.8
3.676e-02,-0.84,-1.1
3.678e-02,-1,-0.78
3.680e-02,-1.04,-1.26
3.682e-02,-0.96,-0.84
3.684e-02,-1.06,-1.22
3.686e-02,-0.8,-0.74
3.688e-02,-1.02,-1.08
3.690e-02,-0.9,-0.74
3.692e-02,-0.88,-1.08
3.694e-02,-0.92,-0.76
3.696e-02,-0.74,-1.1
3.698e-02,-0.94,-0.64
3.700e-02,-1.04,-1.18
3.701e-02,-0.98,-0.8
3.703e-02,-0.96,-1.1
3.705e-02,-0.88,-0.82
3.707e-02,-1,-1.12
3.709e-02,-1.02,-0.78
3.711e-02,-0.88,-1.18
3.713e-02,-1.12,-0.76
3.715e-02,-0.86,-1.16
3.717e-02,-1.08,-0.82
3.719e-02,-1,-1.1
3.721e-02,-0.94,-0.8
3.723e-02,-0.98,-1.14
3.724e-02,-0.92,-0.84
3.726e-02,-1,-1.1
3.728e-02,-1.02,-0.82
3.730e-02,-0.96,-1.2
3.732e-02,-1.02,-0.82
3.734e-02,-1,-1.1
3.736e-02,-0.9,-0.84
3.738e-02,-1.02,-1.08
3.740e-02,-0.94,-0.76
3.742e-02,-0.9,-1.12
3.744e-02,-0.98,-0.8
3.746e-02,-0.94,-1.18
3.748e-02,-0.94,-0.8
3.749e-02,-0.98,-1.14
3.751e-02,-0.86,-0.78
3.753e-02,-0.9,-1.12
3.755e-02,-0.98,-0.8
3.757e-02,-0.94,-1.1
3.759e-02,-0.96,-0.8
3.761e-02,-0.98,-1.18
3.763e-02,-1.02,-0.84
3.765e-02,-0.86,-1.1
3.767e-02,-0.88,-0.76
3.769e-02,-0.98,-1.1
3.771e-02,-0.94,-0.84
3.772e-02,-0.98,-1.08
3.774e-02,-0.86,-0.76
3.776e-02,-0.98,-1.08
3.778e-02,-0.96,-0.82
3.780e-02,-0.88,-1.06
3.782e-02,-0.84,-0.7
3.784e-02,-0.92,-1.04
3.786e-02,-0.98,-0.78
3.788e-02,-0.9,-1.14
3.790e-02,-0.98,-0.74
3.792e-02,-0.96,-1.16
3.794e-02,-1.06,-0.82
3.796e-02,-0.98,-1.12
3.797e-02,-0.96,-0.82
3.799e-02,-0.96,-1.1
3.801e-02,-0.94,-0.82
3.803e-02,-1,-1.08
3.805e-02,-1,-0.86
3.807e-02,-1.04,-1.06
3.809e-02,-0.94,-0.74
3.811e-02,-0.94,-1.14
3.813e-02,-1.04,-0.82
3.815e-02,-0.96,-1.2
3.817e-02,-1.02,-0.86
3.819e-02,-0.92,-1.14
3.820e-02,-0.84,-0.72
3.822e-02,-0.98,-1.1
3.824e-02,-0.9,-0.76
3.826e-02,-1.08,-1.12
3.828e-02,-0.94,-0.78
3.830e-02,-0.9,-1.16
3.832e-02,-0.98,-0.82
3.834e-02,-0.88,-1.04
3.836e-02,-0.88,-0.76
3.838e-02,-0.9,-1.14
3.840e-02,-1.08,-0.8
3.842e-02,-0.88,-1.14
3.844e-02,-0.78,-0.7
3.845e-02,-1.22,-1.22
3.847e-02,-0.92,-0.86
3.849e-02,-1.02,-1.1
3.851e-02,-1.02,-0.76
3.853e-02,-0.98,-1.1
3.855e-02,-0.9,-0.82
3.857e-02,-0.94,-1.12
3.859e-02,-1,-0.8
3.861e-02,-0.98,-1.08
3.863e-02,-0.92,-0.78
3.865e-02,-0.98,-1.16
3.867e-02,-1.02,-0.8
3.868e-02,-0.86,-1.12
3.870e-02,-0.94,-0.8
3.872e-02,-0.94,-1.08
3.874e-02,-0.96,-0.82
3.876e-02,-0.88,-1.22
3.878e-02,-0.84,-0.78
3.880e-02,-1.1,-1.14
3.882e-02,-0.9,-0.78
3.884e-02,-0.92,-1.08
3.886e-02,-1.04,-0.78
3.888e-02,-0.86,-1.08
3.890e-02,-0.94,-0.82
3.892e-02,-0.9,-1.14
3.893e-02,-0.88,-0.8
3.895e-02,-1.1,-1.14
3.897e-02,-0.86,-0.8
3.899e-02,-1.04,-1.12
3.901e-02,-0.96,-0.78
3.903e-02,-0.92,-1.14
3.905e-02,-0.94,-0.8
3.907e-02,-0.94,-1.12
3.909e-02,-0.88,-0.76
3.911e-02,-1,-1.2
3.913e-02,-0.98,-0.84
3.915e-02,-1.1,-1.14
3.916e-02,-0.96,-0.78
3.918e-02,-0.94,-1.12
3.920e-02,-0.96,-0.84
3.922e-02,-0.88,-1.22
3.924e-02,-1.18,-0.84
3.926e-02,-0.94,-1.12
3.928e-02,-0.86,-0.76
3.930e-02,-0.98,-1.12
3.932e-02,-0.94,-0.82
3.934e-02,-0.94,-1.08
3.936e-02,-0.96,-0.78
3.938e-02,-1,-1.12
3.940e-02,-0.88,-0.8
3.941e-02,-0.94,-1.14
3.943e-02,-1.02,-0.78
3.945e-02,-0.96,-1.12
3.947e-02,-0.98,-0.78
3.949e-02,-1.04,-1.1
3.951e-02,-0.86,-0.82
3.953e-02,-0.98,-1.1
3.955e-02,-1,-0.86
3.957e-02,-0.92,-1.08
3.959e-02,-0.86,-0.74
3.961e-02,-1,-1.16
3.963e-02,-1.12,-0.84
3.964e-02,-0.92,-1.12
3.966e-02,-0.98,-0.76
3.968e-02,-0.96,-1.08
3.970e-02,-0.94,-0.78
3.972e-02,-0.98,-1.1
3.974e-02,-0.96,-0.8
3.976e-02,-0.88,-1.08
3.978e-02,-1.02,-0.78
3.980e-02,-0.94,-1.22
3.982e-02,-0.96,-0.72
3.984e-02,-0.98,-1.06
3.986e-02,-0.92,-0.8
3.988e-02,-0.86,-1.2
3.989e-02,-0.82,-0.74
3.991e-02,-0.78,-1.1
3.993e-02,-1.04,-0.74
3.995e-02,-0.92,-1.1
3.997e-02,-1,-0.84
3.999e-02,-0.96,-1.08
4.001e-02,-0.98,-0.76
4.003e-02,-1,-1.14
4.005e-02,-0.84,-0.76
4.007e-02,-0.98,-1.12
4.009e-02,-1,-0.78
4.011e-02,-0.92,-1.2
4.012e-02,-1.1,-0.84
4.014e-02,-0.96,-1.12
4.016e-02,-0.96,-0.78
4.018e-02,-1.06,-1.1
4.020e-02,-0.88,-0.8
4.022e-02,-0.94,-1.14
4.024e-02,-0.84,-0.74
4.026e-02,-1,-1.22
4.028e-02,-0.94,-0.64
4.030e-02,-1.02,-1.16
4.032e-02,-1.04,-0.84
4.034e-02,-0.98,-1.1
4.036e-02,-0.96,-0.8
4.037e-02,-0.98,-1.08
4.039e-02,-0.94,-0.8
4.041e-02,-0.92,-1.16
4.043e-02,-0.98,-0.84
4.045e-02,-0.94,-1.14
4.047e-02,-1.02,-0.8
4.049e-02,-1.02,-1.08
4.051e-02,-0.98,-0.78
4.053e-02,-1.04,-1.08
4.055e-02,-0.86,-0.72
4.057e-02,-0.88,-1.24
4.059e-02,-1.02,-0.82
4.060e-02,-0.98,-1.06
4.062e-02,-0.98,-0.74
4.064e-02,-0.84,-1.12
4.066e-02,-0.98,-0.78
4.068e-02,-0.98,-1.08
4.070e-02,-0.96,-0.76
4.072e-02,-1.06,-1.1
4.074e-02,-0.8,-0.74
4.076e-02,-1.04,-1.14
4.078e-02,-1.06,-0.82
4.080e-02,-0.98,-1.16
4.082e-02,-1.08,-0.8
4.084e-02,-0.96,-1.16
4.085e-02,-0.98,-0.86
4.087e-02,-1,-1.1
4.089e-02,-0.86,-0.82
4.091e-02,-0.94,-1.16
4.093e-02,-1.06,-0.86
4.095e-02,-0.98,-1.14
4.097e-02,-1.04,-0.7
4.099e-02,-0.88,-1.12
4.101e-02,-0.96,-0.8
4.103e-02,-0.86,-1.1
4.105e-02,-0.9,-0.66
4.107e-02,-0.98,-1.14
4.108e-02,-0.96,-0.82
4.110e-02,-1.06,-1.16
4.112e-02,-0.96,-0.86
4.114e-02,-0.9,-1.14
4.116e-02,-0.98,-0.78
4.118e-02,-1.02,-1.1
4.120e-02,-0.92,-0.72
4.122e-02,-1.02,-1.1
4.124e-02,-1.02,-0.76
4.126e-02,-1,-1.12
4.128e-02,-0.96,-0.82
4.130e-02,-1.06,-1.18
4.132e-02,-0.96,-0.82
4.133e-02,-0.96,-1.06
4.135e-02,-1,-0.72
4.137e-02,-0.86,-1.1
4.139e-02,-0.88,-0.72
4.141e-02,-1.04,-1.16
4.143e-02,-1,-0.86
4.145e-02,-1.08,-1.14
4.147e-02,-1,-0.84
4.149e-02,-0.88,-1.08
4.151e-02,-1.02,-0.72
4.153e-02,-0.82,-1.16
4.155e-02,-0.98,-0.8
4.156e-02,-1.06,-1.12
4.158e-02,-1.06,-0.84
4.160e-02,-0.92,-1.12
4.162e-02,-0.98,-0.8
4.164e-02,-0.94,-1.18
4.166e-02,-0.94,-0.8
4.168e-02,-0.98,-1.14
4.170e-02,-0.98,-0.7
4.172e-02,-0.76,-1.1
4.174e-02,-1.02,-0.68
4.176e-02,-0.96,-1.18
4.178e-02,-1,-0.86
4.180e-02,-1.16,-1.22
4.181e-02,-0.9,-0.78
4.183e-02,-1.02,-1.2
4.185e-02,-0.8,-0.72
4.187e-02,-0.92,-1.14
4.189e-02,-0.94,-0.82
4.191e-02,-0.88,-1.12
4.193e-02,-1.04,-0.72
4.195e-02,-0.94,-1.08
4.197e-02,-1.02,-0.8
4.199e-02,-0.88,-1.2
4.201e-02,-0.98,-0.82
4.203e-02,-0.86,-1.04
4.204e-02,-0.98,-0.76
4.206e-02,-0.9,-1.08
4.208e-02,-1.02,-0.74
4.210e-02,-0.92,-1.12
4.212e-02,-1,-0.84
4.214e-02,-1,-1.16
4.216e-02,-0.96,-0.88
4.218e-02,-1,-1.1
4.220e-02,-0.98,-0.7
4.222e-02,-0.9,-1.14
4.224e-02,-1.02,-0.84
4.226e-02,-1.06,-1.14
4.228e-02,-1.08,-0.82
4.229e-02,-0.94,-1.18
4.231e-02,-1.02,-0.82
4.233e-02,-1.02,-1.18
4.235e-02,-1,-0.82
4.237e-02,-0.88,-1.12
4.239e-02,-1.02,-0.84
4.241e-02,-1.02,-1.1
4.243e-02,-0.88,-0.82
4.245e-02,-1.02,-1.22
4.247e-02,-0.94,-0.9
4.249e-02,-0.96,-1.08
4.251e-02,-1.02,-0.68
4.252e-02,-0.94,-1.12
4.254e-02,-1.02,-0.76
4.256e-02,-0.94,-1.12
4.258e-02,-0.92,-0.74
4.260e-02,-0.82,-1.12
4.262e-02,-0.9,-0.76
4.264e-02,-0.92,-1.1
4.266e-02,-0.98,-0.8
4.268e-02,-0.98,-1.14
4.270e-02,-1.08,-0.88
4.272e-02,-1.02,-1.16
4.274e-02,-0.92,-0.82
4.276e-02,-1.08,-1.18
4.277e-02,-1.02,-0.76
4.279e-02,-0.96,-1.08
4.281e-02,-0.86,-0.78
4.283e-02,-0.86,-1.14
4.285e-02,-1.06,-0.78
4.287e-02,-0.98,-1.16
4.289e-02,-0.96,-0.82
4.291e-02,-0.94,-1.1
4.293e-02,-1.02,-0.76
4.295e-02,-0.98,-1.08
4.297e-02,-0.92,-0.76
4.299e-02,-0.94,-1.16
4.301e-02,-0.96,-0.8
4.302e-02,-1,-1.12
4.304e-02,-0.94,-0.82
4.306e-02,-0.98,-1.18
4.308e-02,-0.96,-0.82
4.310e-02,-1.04,-1.12
4.312e-02,-0.98,-0.78
4.314e-02,-0.94,-1.08
4.316e-02,-0.88,-0.74
4.318e-02,-1.12,-1.18
4.320e-02,-0.96,-0.84
4.322e-02,-1.04,-1.18
4.324e-02,-1.12,-0.84
4.325e-02,-0.86,-1.18
4.327e-02,-0.94,-0.8
4.329e-02,-1.04,-1.12
4.331e-02,-1,-0.74
4.333e-02,-0.94,-1.08
4.335e-02,-0.98,-0.7
4.337e-02,-0.98,-1.1
4.339e-02,-0.94,-0.84
4.341e-02,-0.88,-1.12
4.343e-02,-1,-0.74
4.345e-02,-0.96,-1.16
4.347e-02,-0.98,-0.8
4.349e-02,-0.96,-1.06
4.350e-02,-0.86,-0.82
4.352e-02,-0.9,-1.12
4.354e-02,-0.92,-0.82
4.356e-02,-0.96,-1.1
4.358e-02,-0.96,-0.82
4.360e-02,-0.94,-1.08
4.362e-02,-0.92,-0.82
4.364e-02,-0.9,-1.08
4.366e-02,-0.92,-0.76
4.368e-02,-0.84,-1.08
4.370e-02,-0.82,-0.7
4.372e-02,-1.02,-1.14
4.373e-02,-0.98,-0.82
4.375e-02,-0.92,-1.16
4.377e-02,-1.04,-0.8
4.379e-02,-0.9,-1.14
4.381e-02,-0.94,-0.74
4.383e-02,-0.94,-1.08
4.385e-02,-0.94,-0.78
4.387e-02,-0.92,-1.08
4.389e-02,-0.82,-0.72
4.391e-02,-0.98,-1.16
4.393e-02,-1.02,-0.8
4.395e-02,-0.96,-1.1
4.397e-02,-0.98,-0.74
4.398e-02,-0.94,-1.14
4.400e-02,-1.06,-0.82
4.402e-02,-1,-1.16
4.404e-02,-0.96,-0.8
4.406e-02,-1,-1.08
4.408e-02,-0.86,-0.8
4.410e-02,-0.98,-1.16
4.412e-02,-0.88,-0.76
4.414e-02,-0.98,-1.1
4.416e-02,-0.9,-0.76
4.418e-02,-0.9,-1.12
4.420e-02,-1,-0.8
4.421e-02,-1.02,-1.06
4.423e-02,-0.94,-0.8
4.425e-02,-0.92,-1.22
4.427e-02,-1.08,-0.84
4.429e-02,-0.94,-1.12
4.431e-02,-1.02,-0.78
4.433e-02,-0.94,-1.06
4.435e-02,-0.96,-0.8
4.437e-02,-0.94,-1.16
4.439e-02,-1.08,-0.76
4.441e-02,-0.94,-1.08
4.443e-02,-0.86,-0.72
4.445e-02,-1,-1.06
4.446e-02,-0.98,-0.8
4.448e-02,-0.98,-1.08
4.450e-02,-0.96,-0.74
4.452e-02,-0.9,-1.04
4.454e-02,-0.92,-0.76
4.456e-02,-0.94,-1.1
4.458e-02,-0.84,-0.7
4.460e-02,-0.96,-1.06
4.462e-02,-1,-0.8
4.464e-02,-0.92,-1.04
4.466e-02,-0.94,-0.76
4.468e-02,-0.8,-1.04
4.469e-02,-0.92,-0.72
4.471e-02,-0.92,-1.14
4.473e-02,-0.98,-0.86
4.475e-02,-0.94,-1.1
4.477e-02,-0.9,-0.78
4.479e-02,-1,-1.14
4.481e-02,-0.98,-0.82
4.483e-02,-1.04,-1.14
4.485e-02,-0.94,-0.82
4.487e-02,-0.9,-1.06
4.489e-02,-0.94,-0.8
4.491e-02,-1,-1.08
4.493e-02,-0.94,-0.82
4.494e-02,-1,-1.1
4.496e-02,-0.9,-0.74
4.498e-02,-0.84,-1.12
4.500e-02,-1,-0.8
4.502e-02,-0.94,-1.1
4.504e-02,-0.88,-0.78
4.506e-02,-0.94,-1.14
4.508e-02,-0.94,-0.84
4.510e-02,-0.92,-1.04
4.512e-02,-0.98,-0.72
4.514e-02,-0.9,-1.1
4.516e-02,-0.84,-0.76
4.517e-02,-0.96,-1.1
4.519e-02,-1,-0.76
4.521e-02,-0.92,-1.18
4.523e-02,-0.94,-0.84
4.525e-02,-1,-1.1
4.527e-02,-0.86,-0.82
4.529e-02,-0.96,-1.08
4.531e-02,-0.94,-0.7
4.533e-02,-0.92,-1.08
4.535e-02,-0.94,-0.82
4.537e-02,-0.94,-1.12
4.539e-02,-0.98,-0.82
4.541e-02,-1.04,-1.16
4.542e-02,-0.86,-0.8
4.544e-02,-0.98,-1.04
4.546e-02,-0.96,-0.74
4.548e-02,-0.9,-1.1
4.550e-02,-0.94,-0.8
4.552e-02,-0.88,-1.14
4.554e-02,-1.04,-0.78
4.556e-02,-1.06,-1.2
4.558e-02,-1.06,-0.82
4.560e-02,-0.88,-1.08
4.562e-02,-0.86,-0.68
4.564e-02,-0.96,-1.14
4.565e-02,-0.94,-0.84
4.567e-02,-0.9,-1.06
4.569e-02,-0.96,-0.82
4.571e-02,-0.9,-1.08
4.573e-02,-0.84,-0.76
4.575e-02,-0.92,-1.16
4.577e-02,-0.96,-0.84
4.579e-02,-1.02,-1.06
4.581e-02,-0.88,-0.82
4.583e-02,-0.92,-1.14
4.585e-02,-0.98,-0.74
4.587e-02,-0.86,-1.16
4.589e-02,-0.94,-0.78
4.590e-02,-0.9,-1.08
4.592e-02,-0.96,-0.8
4.594e-02,-1.02,-1.08
4.596e-02,-0.92,-0.76
4.598e-02,-0.86,-1.1
4.600e-02,-0.92,-0.72
4.602e-02,-0.84,-1.14
4.604e-02,-0.9,-0.72
4.606e-02,-0.92,-1.2
4.608e-02,-1.12,-0.82
4.610e-02,-0.96,-1.06
4.612e-02,-0.92,-0.84
4.613e-02,-0.94,-1.1
4.615e-02,-0.98,-0.78
4.617e-02,-0.92,-1.06
4.619e-02,-0.9,-0.76
4.621e-02,-0.82,-1.08
4.623e-02,-0.94,-0.78
4.625e-02,-0.86,-1.06
4.627e-02,-0.96,-0.72
4.629e-02,-0.72,-1.16
4.631e-02,-0.78,-0.68
4.633e-02,-0.98,-1.14
4.635e-02,-1.02,-0.84
4.637e-02,-0.98,-1.06
4.638e-02,-1,-0.78
4.640e-02,-0.82,-1.2
4.642e-02,-0.98,-0.78
4.644e-02,-0.96,-1.06
4.646e-02,-0.94,-0.84
4.648e-02,-0.94,-1.18
4.650e-02,-0.9,-0.8
4.652e-02,-1,-1.2
4.654e-02,-1.1,-0.8
4.656e-02,-0.84,-1.12
4.658e-02,-0.96,-0.78
4.660e-02,-0.9,-1.12
4.661e-02,-0.88,-0.78
4.663e-02,-0.92,-1.02
4.665e-02,-0.84,-0.72
4.667e-02,-0.96,-1.1
4.669e-02,-0.88,-0.8
4.671e-02,-1.02,-1.1
4.673e-02,-0.94,-0.82
4.675e-02,-0.94,-1.14
4.677e-02,-1,-0.82
4.679e-02,-0.94,-1.18
4.681e-02,-1.06,-0.88
4.683e-02,-0.98,-1.08
4.685e-02,-0.82,-0.7
4.686e-02,-1.08,-1.16
4.688e-02,-0.92,-0.84
4.690e-02,-0.94,-1.16
4.692e-02,-0.86,-0.76
4.694e-02,-0.9,-1.08
4.696e-02,-1.02,-0.72
4.698e-02,-0.84,-1.12
4.700e-02,-0.88,-0.74
4.702e-02,-0.98,-1.14
4.704e-02,-1.04,-0.8
4.706e-02,-1,-1.08
4.708e-02,-0.9,-0.8
4.709e-02,-0.96,-1.12
4.711e-02,-0.88,-0.78
4.713e-02,-0.96,-1.06
4.715e-02,-0.9,-0.66
4.717e-02,-0.96,-1.22
4.719e-02,-0.84,-0.8
4.721e-02,-0.94,-1.12
4.723e-02,-0.88,-0.78
4.725e-02,-1.08,-1.14
4.727e-02,-0.92,-0.82
4.729e-02,-0.92,-1.06
4.731e-02,-0.82,-0.7
4.733e-02,-1.02,-1.14
4.734e-02,-1,-0.84
4.736e-02,-1.04,-1.18
4.738e-02,-1.04,-0.82
4.740e-02,-1,-1.14
4.742e-02,-1.06,-0.76
4.744e-02,-0.82,-1.02
4.746e-02,-0.94,-0.74
4.748e-02,-0.86,-1.12
4.750e-02,-1.02,-0.8
4.752e-02,-1.08,-1.12
4.754e-02,-0.98,-0.84
4.756e-02,-1.02,-1.1
4.757e-02,-0.98,-0.74
4.759e-02,-0.84,-1.14
4.761e-02,-1.1,-0.78
4.763e-02,-1.02,-1.1
4.765e-02,-0.92,-0.76
4.767e-02,-0.96,-1.18
4.769e-02,-0.98,-0.88
4.771e-02,-0.98,-1.12
4.773e-02,-0.88,-0.82
4.775e-02,-1.06,-1.1
4.777e-02,-0.9,-0.76
4.779e-02,-0.76,-1.16
4.781e-02,-0.8,-0.68
4.782e-02,-0.98,-1.1
4.784e-02,-0.9,-0.8
4.786e-02,-0.96,-1.12
4.788e-02,-0.76,-0.7
4.790e-02,-0.92,-1.1
4.792e-02,-1,-0.82
4.794e-02,-0.96,-1.1
4.796e-02,-0.88,-0.8
4.798e-02,-0.82,-1.12
4.800e-02,-1.02,-0.78
4.802e-02,-0.94,-1.12
4.804e-02,-1.02,-0.82
4.805e-02,-1,-1.12
4.807e-02,-0.96,-0.8
4.809e-02,-0.96,-1.08
4.811e-02,-0.94,-0.76
4.813e-02,-0.88,-1.06
4.815e-02,-1.02,-0.8
4.817e-02,-0.96,-1.14
4.819e-02,-1.08,-0.8
4.821e-02,-0.98,-1.06
4.823e-02,-0.96,-0.68
4.825e-02,-0.94,-1.1
4.827e-02,-0.88,-0.82
4.829e-02,-0.94,-1.1
4.830e-02,-1.04,-0.8
4.832e-02,-0.96,-1.12
4.834e-02,-1,-0.82
4.836e-02,-1.04,-1.16
4.838e-02,-1.06,-0.88
4.840e-02,-0.96,-1.06
4.842e-02,-0.92,-0.8
4.844e-02,-0.96,-1.06
4.846e-02,-0.96,-0.76
4.848e-02,-0.9,-1.16
4.850e-02,-1.04,-0.84
4.852e-02,-0.94,-1.1
4.853e-02,-1.02,-0.84
4.855e-02,-1,-1.18
4.857e-02,-0.98,-0.86
4.859e-02,-1.04,-1.1
4.861e-02,-0.98,-0.84
4.863e-02,-0.98,-1.08
4.865e-02,-0.98,-0.78
4.867e-02,-1.02,-1.18
4.869e-02,-1.14,-0.8
4.871e-02,-1,-1.1
4.873e-02,-1.04,-0.78
4.875e-02,-0.96,-1.06
4.877e-02,-0.92,-0.76
4.878e-02,-0.98,-1.16
4.880e-02,-1,-0.86
4.882e-02,-1.06,-1.16
4.884e-02,-1.06,-0.76
4.886e-02,-1.02,-1.16
4.888e-02,-1,-0.72
4.890e-02,-1.02,-1.1
4.892e-02,-0.86,-0.8
4.894e-02,-0.96,-1.06
4.896e-02,-0.86,-0.72
4.898e-02,-0.9,-1.1
4.900e-02,-1.02,-0.8
4.901e-02,-0.88,-1.16
4.903e-02,-0.96,-0.82
4.905e-02,-0.98,-1.12
4.907e-02,-0.86,-0.74
4.909e-02,-1.02,-1.1
4.911e-02,-0.92,-0.72
4.913e-02,-0.96,-1.12
4.915e-02,-1,-0.78
4.917e-02,-0.98,-1.16
4.919e-02,-0.94,-0.84
4.921e-02,-0.92,-1.12
4.923e-02,-0.96,-0.84
4.925e-02,-1,-1.12
4.926e-02,-0.98,-0.82
4.928e-02,-1,-1.04
4.930e-02,-0.78,-0.74
4.932e-02,-0.92,-1.1
4.934e-02,-1.02,-0.78
4.936e-02,-1,-1.14
4.938e-02,-1.08,-0.84
4.940e-02,-0.92,-1.06
4.942e-02,-0.96,-0.76
4.944e-02,-0.96,-1.06
4.946e-02,-0.86,-0.8
4.948e-02,-0.94,-1.16
4.950e-02,-0.86,-0.78
4.951e-02,-0.92,-1.14
4.953e-02,-0.98,-0.72
4.955e-02,-0.86,-1.08
4.957e-02,-0.98,-0.82
4.959e-02,-0.92,-1.14
4.961e-02,-1.06,-0.78
4.963e-02,-0.96,-1.04
4.965e-02,-0.88,-0.74
4.967e-02,-0.96,-1.1
4.969e-02,-0.94,-0.86
4.971e-02,-0.9,-1.2
4.973e-02,-0.94,-0.82
4.974e-02,-0.94,-1.1
4.976e-02,-0.94,-0.82
4.978e-02,-1,-1.14
4.980e-02,-0.76,-0.72
4.982e-02,-1.04,-1.12
4.984e-02,-0.86,-0.82
4.986e-02,-1.04,-1.18
4.988e-02,-1.02,-0.88
4.990e-02,-0.92,-1.08
4.992e-02,-1,-0.8
4.994e-02,-0.92,-1.08
4.996e-02,-0.96,-0.8
4.998e-02,-1.02,-1.12
4.999e-02,-0.9,-0.78
5.001e-02,-0.98,-1.08
5.003e-02,-0.94,-0.76
5.005e-02,-0.96,-1.16
5.007e-02,-1,-0.84
5.009e-02,-0.92,-1.04
5.011e-02,-0.92,-0.74
5.013e-02,-0.94,-1.22
5.015e-02,-0.9,-0.84
5.017e-02,-1.14,-1.16
5.019e-02,-1.02,-0.88
5.021e-02,-1,-1.16
5.022e-02,-1,-0.78
5.024e-02,-0.96,-1.1
5.026e-02,-1.04,-0.78
5.028e-02,-0.94,-1.1
5.030e-02,-0.96,-0.8
5.032e-02,-0.96,-1.12
5.034e-02,-1.02,-0.78
5.036e-02,-0.9,-1.02
5.038e-02,-0.94,-0.74
5.040e-02,-0.92,-1.1
5.042e-02,-1.04,-0.84
5.044e-02,-0.88,-1.14
5.046e-02,-1,-0.78
5.047e-02,-0.92,-1.22
5.049e-02,-0.92,-0.82
5.051e-02,-0.98,-1.1
5.053e-02,-0.98,-0.76
5.055e-02,-1,-1.26
5.057e-02,-0.86,-0.72
5.059e-02,-0.9,-1.08
5.061e-02,-1,-0.76
5.063e-02,-0.96,-1.1
5.065e-02,-0.96,-0.8
5.067e-02,-1,-1.12
5.069e-02,-0.92,-0.86
5.070e-02,-1,-1.12
5.072e-02,-0.9,-0.78
5.074e-02,-0.94,-1.1
5.076e-02,-0.98,-0.78
5.078e-02,-0.88,-1.1
5.080e-02,-0.98,-0.78
5.082e-02,-0.98,-3.52
5.084e-02,-3.52,1.56
5.086e-02,-3.22,-3.52
5.088e-02,0.22,0.34
5.090e-02,0.18,-0.02
5.092e-02,0.12,0.36
5.094e-02,0.14,-0.02
5.095e-02,0.04,0.3
5.097e-02,0.1,-0.12
5.099e-02,-0.02,0.26
5.101e-02,-0.08,-0.16
5.103e-02,0.02,0.22
5.105e-02,-0.02,-0.2
5.107e-02,0.04,0.1
5.109e-02,-0.02,-0.24
5.111e-02,-0.1,0.04
5.113e-02,-0.1,-0.32
5.115e-02,-0.06,0.06
5.117e-02,-0.22,-0.32
5.118e-02,-0.22,-1.90735e-08
5.120e-02,-0.18,-0.34
5.122e-02,-0.14,-0.04
5.124e-02,-0.24,-0.52
5.126e-02,-0.18,-0.06
5.128e-02,-0.42,-0.5
5.130e-02,-0.48,-0.1
5.132e-02,-0.34,-0.5
5.134e-02,-0.44,-0.2
5.136e-02,-0.52,-0.6
5.138e-02,-0.46,-0.32
5.140e-02,-0.46,-0.68
5.142e-02,-0.4,-0.34
5.143e-02,-0.56,-0.66
5.145e-02,-0.56,-0.38
5.147e-02,-0.52,-0.76
5.149e-02,-0.6,-0.4
5.151e-02,-0.54,-0.84
5.153e-02,-0.52,-0.44
5.155e-02,-0.8,-0.84
5.157e-02,-0.58,-0.4
5.159e-02,-0.72,-0.9
5.161e-02,-0.6,-0.48
5.163e-02,-0.78,-0.88
5.165e-02,-0.6,-0.5
5.166e-02,-0.6,-0.84
5.168e-02,-0.74,-0.54
5.170e-02,-0.56,-0.9
5.172e-02,-0.7,-0.44
5.174e-02,-0.66,-0.88
5.176e-02,-0.72,-0.54
5.178e-02,-0.76,-0.92
5.180e-02,-0.84,-0.64
5.182e-02,-0.7,-0.9
5.184e-02,-0.64,-0.52
5.186e-02,-0.76,-0.9
5.188e-02,-0.78,-0.6
5.190e-02,-0.78,-1
5.191e-02,-0.76,-0.58
5.193e-02,-0.92,-0.98
5.195e-02,-0.76,-0.7
5.197e-02,-0.84,-0.96
5.199e-02,-0.8,-0.64
5.201e-02,-0.76,-1
5.203e-02,-0.88,-0.7
5.205e-02,-0.84,-0.96
5.207e-02,-0.62,-0.58
5.209e-02,-0.76,-1
5.211e-02,-0.8,-0.56
5.213e-02,-0.84,-1.06
5.214e-02,-0.8,-0.72
5.216e-02,-0.88,-1.02
5.218e-02,-0.86,-0.74
5.220e-02,-0.84,-1.04
5.222e-02,-0.8,-0.7
5.224e-02,-0.78,-1.02
5.226e-02,-0.9,-0.68
5.228e-02,-0.9,-1.1
5.230e-02,-0.94,-0.68
5.232e-02,-0.96,-1.1
5.234e-02,-0.92,-0.78
5.236e-02,-0.8,-1.12
5.238e-02,-1,-0.78
5.239e-02,-0.92,-1.14
5.241e-02,-0.82,-0.74
5.243e-02,-1.08,-1.14
5.245e-02,-0.92,-0.76
5.247e-02,-1.04,-1.16
5.249e-02,-1.04,-0.78
5.251e-02,-0.9,-1.12
5.253e-02,-1.06,-0.8
5.255e-02,-1.02,-1.12
5.257e-02,-0.96,-0.78
5.259e-02,-0.92,-1.24
5.261e-02,-1.16,-0.82
5.262e-02,-1.02,-1.12
5.264e-02,-0.94,-0.88
5.266e-02,-1.02,-1.1
5.268e-02,-1.06,-0.82
5.270e-02,-0.94,-1.16
5.272e-02,-0.9,-0.8
5.274e-02,-0.9,-1.06
5.276e-02,-0.92,-0.82
5.278e-02,-1,-1.16
5.280e-02,-0.9,-0.76
5.282e-02,-1.04,-1.1
5.284e-02,-0.98,-0.84
5.286e-02,-0.92,-1.2
5.287e-02,-1.08,-0.86
5.289e-02,-0.92,-1.14
5.291e-02,-1.02,-0.8
5.293e-02,-1.1,-1.18
5.295e-02,-1.04,-0.84
5.297e-02,-1,-1.2
5.299e-02,-0.98,-0.9
5.301e-02,-1.12,-1.18
5.303e-02,-0.98,-0.82
5.305e-02,-0.88,-1.18
5.307e-02,-0.96,-0.84
5.309e-02,-1.06,-1.24
5.310e-02,-1.12,-0.94
5.312e-02,-1.16,-1.2
5.314e-02,-0.9,-0.88
5.316e-02,-1.04,-1.2
5.318e-02,-1.04,-0.88
5.320e-02,-0.98,-1.14
5.322e-02,-0.96,-0.8
5.324e-02,-0.96,-1.1
5.326e-02,-1,-0.8
5.328e-02,-1.06,-1.16
5.330e-02,-0.94,-0.82
5.332e-02,-1.08,-1.2
5.334e-02,-0.98,-0.88
5.335e-02,-0.98,-1.14
5.337e-02,-0.92,-0.8
5.339e-02,-0.86,-1.1
5.341e-02,-1.02,-0.78
5.343e-02,-0.9,-1.16
5.345e-02,-0.94,-0.86
5.347e-02,-1.04,-1.14
5.349e-02,-1.04,-0.84
5.351e-02,-0.88,-1.24
5.353e-02,-1.02,-0.8
5.355e-02,-1,-1.16
5.357e-02,-1.06,-0.84
5.358e-02,-0.96,-1.2
5.360e-02,-0.92,-0.76
5.362e-02,-0.98,-1.2
5.364e-02,-1.02,-0.82
5.366e-02,-0.9,-1.16
5.368e-02,-0.88,-0.8
5.370e-02,-1.08,-1.16
5.372e-02,-1.02,-0.94
5.374e-02,-0.92,-1.18
5.376e-02,-1.04,-0.82
5.378e-02,-0.98,-1.12
5.380e-02,-0.98,-0.82
5.382e-02,-0.98,-1.14
5.383e-02,-1,-0.82
5.385e-02,-1.04,-1.16
5.387e-02,-1,-0.86
5.389e-02,-1.04,-1.16
5.391e-02,-0.96,-0.78
5.393e-02,-0.94,-1.16
5.395e-02,-0.92,-0.84
5.397e-02,-1,-1.06
5.399e-02,-0.94,-0.78
5.401e-02,-1.06,-1.2
5.403e-02,-1.02,-0.84
5.405e-02,-0.92,-1.16
5.406e-02,-0.88,-0.82
5.408e-02,-1,-1.2
5.410e-02,-0.96,-0.84
5.412e-02,-1.06,-1.14
5.414e-02,-0.98,-0.84
5.416e-02,-0.98,-1.16
5.418e-02,-1.02,-0.84
5.420e-02,-0.98,-1.12
5.422e-02,-0.98,-0.8
5.424e-02,-0.9,-1.2
5.426e-02,-1.02,-0.8
5.428e-02,-0.82,-1.26
5.430e-02,-1,-0.8
5.431e-02,-0.9,-1.12
5.433e-02,-0.96,-0.84
5.435e-02,-1.1,-1.18
5.437e-02,-0.94,-0.82
5.439e-02,-0.92,-1.28
5.441e-02,-1.02,-0.84
5.443e-02,-1.02,-1.18
5.445e-02,-1.02,-0.86
5.447e-02,-0.98,-1.18
5.449e-02,-0.92,-0.82
5.451e-02,-0.98,-1.14
5.453e-02,-0.88,-0.8
5.454e-02,-1.08,-1.2
5.456e-02,-0.98,-0.86
5.458e-02,-0.96,-1.22
5.460e-02,-1,-0.78
5.462e-02,-1,-1.14
5.464e-02,-0.98,-0.84
5.466e-02,-0.98,-1.12
5.468e-02,-0.96,-0.86
5.470e-02,-1,-1.24
5.472e-02,-1.16,-0.74
5.474e-02,-0.98,-1.16
5.476e-02,-1.02,-0.8
5.478e-02,-0.94,-1.1
5.479e-02,-0.9,-0.78
5.481e-02,-0.94,-1.1
5.483e-02,-0.84,-0.72
5.485e-02,-1,-1.2
5.487e-02,-0.94,-0.76
5.489e-02,-0.88,-1.1
5.491e-02,-0.88,-0.74
5.493e-02,-1.02,-1.14
5.495e-02,-0.98,-0.8
5.497e-02,-1.02,-1.12
5.499e-02,-0.94,-0.76
5.501e-02,-0.96,-1.16
5.502e-02,-1.04,-0.86
5.504e-02,-1.06,-1.12
5.506e-02,-0.94,-0.86
5.508e-02,-0.98,-1.18
5.510e-02,-0.8,-0.74
5.512e-02,-1.1,-1.18
5.514e-02,-1.02,-0.84
5.516e-02,-0.94,-1.1
5.518e-02,-0.92,-0.84
5.520e-02,-1.02,-1.12
5.522e-02,-0.92,-0.8
5.524e-02,-1.04,-1.12
5.526e-02,-0.9,-0.8
5.527e-02,-1.04,-1.18
5.529e-02,-1.04,-0.82
5.531e-02,-1.04,-1.14
5.533e-02,-0.94,-0.76
5.535e-02,-0.98,-1.06
5.537e-02,-0.96,-0.72
5.539e-02,-0.82,-1.2
5.541e-02,-1.1,-0.72
5.543e-02,-1.02,-1.2
5.545e-02,-0.98,-0.82
5.547e-02,-1,-1.1
5.549e-02,-0.96,-0.8
5.551e-02,-1,-1.1
5.552e-02,-0.92,-0.7
5.554e-02,-0.96,-1.08
5.556e-02,-0.92,-0.82
5.558e-02,-0.96,-1.26
5.560e-02,-1.04,-0.86
5.562e-02,-1,-1.1
5.564e-02,-0.96,-0.84
5.566e-02,-0.88,-1.16
5.568e-02,-1,-0.84
5.570e-02,-1.02,-1.2
5.572e-02,-1.08,-0.88
5.574e-02,-1.12,-1.18
5.575e-02,-0.88,-0.82
5.577e-02,-1.08,-1.14
5.579e-02,-0.96,-0.82
5.581e-02,-0.86,-1.16
5.583e-02,-1.08,-0.82
5.585e-02,-0.88,-1.12
5.587e-02,-1,-0.84
5.589e-02,-0.94,-1.08
5.591e-02,-0.92,-0.8
5.593e-02,-1.02,-1.18
5.595e-02,-1.08,-0.86
5.597e-02,-0.96,-1.16
5.599e-02,-1.02,-0.8
5.600e-02,-0.86,-1.12
5.602e-02,-1.08,-0.8
5.604e-02,-0.9,-1.14
5.606e-02,-0.94,-0.84
5.608e-02,-0.96,-1.24
5.610e-02,-1.08,-0.84
5.612e-02,-1.08,-1.12
5.614e-02,-1.02,-0.74
5.616e-02,-0.9,-1.04
5.618e-02,-1,-0.8
5.620e-02,-0.92,-1.2
5.622e-02,-1.14,-0.78
5.623e-02,-1.02,-1.2
5.625e-02,-0.96,-0.8
5.627e-02,-1.22,-1.22
5.629e-02,-1.06,-0.86
5.631e-02,-0.94,-1.16
5.633e-02,-0.94,-0.8
5.635e-02,-1,-1.08
5.637e-02,-0.96,-0.78
5.639e-02,-0.96,-1.12
5.641e-02,-1,-0.82
5.643e-02,-1.08,-1.18
5.645e-02,-0.9,-0.82
5.647e-02,-1.02,-1.1
5.648e-02,-1,-0.86
5.650e-02,-0.94,-1.2
5.652e-02,-1.04,-0.78
5.654e-02,-0.94,-1.14
5.656e-02,-1.14,-0.84
5.658e-02,-0.96,-1.12
5.660e-02,-0.98,-0.72
5.662e-02,-1.1,-1.18
5.664e-02,-0.98,-0.88
5.666e-02,-0.98,-1.12
5.668e-02,-0.98,-0.84
5.670e-02,-0.98,-1.16
5.671e-02,-0.86,-0.78
5.673e-02,-0.98,-1.14
5.675e-02,-1.06,-0.86
5.677e-02,-1.04,-1.2
5.679e-02,-1.06,-0.78
5.681e-02,-0.9,-1.18
5.683e-02,-1.06,-0.78
5.685e-02,-0.96,-1.16
5.687e-02,-1.04,-0.86
5.689e-02,-1.08,-1.2
5.691e-02,-1.04,-0.82
5.693e-02,-0.96,-1.16
5.695e-02,-0.9,-0.86
5.696e-02,-1,-1.18
5.698e-02,-0.94,-0.86
5.700e-02,-1.14,-1.18
5.702e-02,-1.06,-0.78
5.704e-02,-0.9,-1.12
5.706e-02,-1,-0.76
5.708e-02,-1.06,-1.16
5.710e-02,-0.92,-0.72
5.712e-02,-1,-1.12
5.714e-02,-0.96,-0.84
5.716e-02,-0.94,-1.12
5.718e-02,-0.98,-0.82
5.719e-02,-1,-1.06
5.721e-02,-0.92,-0.82
5.723e-02,-0.92,-1.16
5.725e-02,-1,-0.82
5.727e-02,-1.06,-1.16
5.729e-02,-0.96,-0.84
5.731e-02,-1.02,-1.1
5.733e-02,-0.92,-0.72
5.735e-02,-0.9,-1.06
5.737e-02,-0.96,-0.82
5.739e-02,-0.96,-1.12
5.741e-02,-1,-0.86
5.743e-02,-0.92,-1.18
5.744e-02,-0.98,-0.86
5.746e-02,-1.04,-1.1
5.748e-02,-0.92,-0.78
5.750e-02,-0.94,-1.16
5.752e-02,-0.94,-0.86
5.754e-02,-0.96,-1.14
5.756e-02,-0.92,-0.8
5.758e-02,-0.94,-1.1
5.760e-02,-1.04,-0.82
5.762e-02,-0.96,-1.1
5.764e-02,-1.04,-0.84
5.766e-02,-0.86,-1.06
5.767e-02,-0.96,-0.8
5.769e-02,-0.94,-1.12
5.771e-02,-1.04,-0.82
5.773e-02,-0.88,-1.18
5.775e-02,-0.94,-0.76
5.777e-02,-1.04,-1.12
5.779e-02,-0.98,-0.82
5.781e-02,-1.04,-1.18
5.783e-02,-0.94,-0.82
5.785e-02,-0.96,-1.08
5.787e-02,-0.92,-0.8
5.789e-02,-0.98,-1.14
5.791e-02,-0.92,-0.86
5.792e-02,-0.92,-1.18
5.794e-02,-1.06,-0.8
5.796e-02,-0.98,-1.12
5.798e-02,-1,-0.82
5.800e-02,-1.02,-1.14
5.802e-02,-0.96,-0.86
5.804e-02,-1.08,-1.16
5.806e-02,-0.9,-0.86
5.808e-02,-0.96,-1.1
5.810e-02,-0.96,-0.8
5.812e-02,-1,-1.12
5.814e-02,-0.92,-0.8
5.815e-02,-0.92,-1.08
5.817e-02,-0.98,-0.82
5.819e-02,-1.06,-1.14
5.821e-02,-1,-0.82
5.823e-02,-0.94,-1.2
5.825e-02,-1,-0.84
5.827e-02,-1.08,-1.16
5.829e-02,-0.96,-0.84
5.831e-02,-1,-1.1
5.833e-02,-0.9,-0.82
5.835e-02,-0.9,-1.16
5.837e-02,-0.94,-0.82
5.839e-02,-1.04,-1.16
5.840e-02,-1.04,-0.86
5.842e-02,-0.98,-1.14
5.844e-02,-1.06,-0.82
5.846e-02,-0.98,-1.1
5.848e-02,-1.06,-0.82
5.850e-02,-1.02,-1.16
5.852e-02,-0.86,-0.78
5.854e-02,-1.02,-1.08
5.856e-02,-0.94,-0.84
5.858e-02,-1.1,-1.18
5.860e-02,-0.94,-0.76
5.862e-02,-1.08,-1.18
5.863e-02,-1.14,-0.86
5.865e-02,-0.92,-1.18
5.867e-02,-0.94,-0.82
5.869e-02,-0.88,-1.12
5.871e-02,-0.98,-0.82
5.873e-02,-1.04,-1.22
5.875e-02,-1.06,-0.84
5.877e-02,-1.06,-1.16
5.879e-02,-0.98,-0.88
5.881e-02,-0.94,-1.06
5.883e-02,-0.98,-0.78
5.885e-02,-0.88,-1.14
5.887e-02,-0.92,-0.8
5.888e-02,-1.04,-1.14
5.890e-02,-0.92,-0.88
5.892e-02,-1.16,-1.18
5.894e-02,-1.02,-0.84
5.896e-02,-1.04,-1.16
5.898e-02,-0.82,-0.74
5.900e-02,-1.06,-1.26
5.902e-02,-1.1,-0.82
5.904e-02,-0.82,-1.12
5.906e-02,-1,-0.74
5.908e-02,-1.06,-1.16
5.910e-02,-1.04,-0.86
5.911e-02,-1.02,-1.18
5.913e-02,-0.96,-0.84
5.915e-02,-0.94,-1.14
5.917e-02,-1,-0.82
5.919e-02,-1.02,-1.16
5.921e-02,-0.98,-0.78
5.923e-02,-0.96,-1.16
5.925e-02,-0.96,-0.86
5.927e-02,-1.06,-1.16
5.929e-02,-0.9,-0.74
5.931e-02,-0.98,-1.1
5.933e-02,-0.92,-0.82
5.935e-02,-0.92,-1.1
5.936e-02,-1.02,-0.76
5.938e-02,-0.92,-1.12
5.940e-02,-0.92,-0.82
5.942e-02,-1,-1.1
5.944e-02,-0.98,-0.84
5.946e-02,-1.02,-1.14
5.948e-02,-1.08,-0.8
5.950e-02,-1.04,-1.16
5.952e-02,-1.06,-0.84
5.954e-02,-0.86,-1.2
5.956e-02,-1.14,-0.82
5.958e-02,-0.98,-1.1
5.959e-02,-0.98,-0.84
5.961e-02,-1.04,-1.1
5.963e-02,-1,-0.78
5.965e-02,-1.02,-1.06
5.967e-02,-0.88,-0.8
5.969e-02,-0.92,-1.16
5.971e-02,-1,-0.72
5.973e-02,-1.04,-1.12
5.975e-02,-1,-0.86
5.977e-02,-0.96,-1.16
5.979e-02,-0.86,-0.84
5.981e-02,-1.1,-1.16
5.983e-02,-0.96,-0.78
5.984e-02,-0.96,-1.1
5.986e-02,-0.94,-0.84
5.988e-02,-0.94,-1.18
5.990e-02,-1,-0.82
5.992e-02,-0.98,-1.18
5.994e-02,-0.88,-0.78
5.996e-02,-0.94,-1.22
5.998e-02,-1,-0.8
6.000e-02,-0.96,-1.12
6.002e-02,-1.06,-0.76
6.004e-02,-0.92,-1.1
6.006e-02,-1.06,-0.82
6.007e-02,-0.98,-1.26
6.009e-02,-1.18,-0.82
6.011e-02,-0.94,-1.12
6.013e-02,-0.94,-0.78
6.015e-02,-1.02,-1.1
6.017e-02,-0.9,-0.82
6.019e-02,-0.84,-1.14
6.021e-02,-0.94,-0.8
6.023e-02,-0.98,-1.12
6.025e-02,-0.94,-0.8
6.027e-02,-0.86,-1.08
6.029e-02,-0.96,-0.8
6.031e-02,-0.92,-1.18
6.032e-02,-1.1,-0.8
6.034e-02,-1,-1.06
6.036e-02,-0.94,-0.74
6.038e-02,-0.9,-1.22
6.040e-02,-1.12,-0.84
6.042e-02,-0.9,-1.14
6.044e-02,-0.86,-0.8
6.046e-02,-0.88,-1.12
6.048e-02,-0.94,-0.82
6.050e-02,-1.08,-1.16
6.052e-02,-1.06,-0.86
6.054e-02,-0.94,-1.12
6.055e-02,-1,-0.8
6.057e-02,-0.98,-1.16
6.059e-02,-0.98,-0.8
6.061e-02,-1.02,-1.12
6.063e-02,-0.96,-0.88
6.065e-02,-1.06,-1.1
6.067e-02,-0.98,-0.82
6.069e-02,-0.9,-1.28
6.071e-02,-1,-0.84
6.073e-02,-0.86,-1.14
6.075e-02,-1.1,-0.82
6.077e-02,-0.96,-1.14
6.079e-02,-1.08,-0.82
6.080e-02,-1,-1.12
6.082e-02,-0.96,-0.86
6.084e-02,-1.02,-1.12
6.086e-02,-0.82,-0.76
6.088e-02,-0.94,-1.18
6.090e-02,-1,-0.82
6.092e-02,-1.02,-1.2
6.094e-02,-1,-0.78
6.096e-02,-0.94,-1.1
6.098e-02,-0.88,-0.76
6.100e-02,-1,-1.12
6.102e-02,-0.94,-0.86
6.103e-02,-1,-1.2
6.105e-02,-1.12,-0.88
6.107e-02,-0.98,-1.14
6.109e-02,-1,-0.84
6.111e-02,-0.9,-1.16
6.113e-02,-0.98,-0.84
6.115e-02,-0.98,-1.2
6.117e-02,-1.08,-0.82
6.119e-02,-0.96,-1.16
6.121e-02,-1.06,-0.8
6.123e-02,-1.1,-1.16
6.125e-02,-0.96,-0.88
6.127e-02,-1,-1.1
6.128e-02,-1.02,-0.76
6.130e-02,-1,-1.1
6.132e-02,-0.98,-0.78
6.134e-02,-0.88,-1.2
6.136e-02,-0.98,-0.8
6.138e-02,-0.98,-1.14
6.140e-02,-1.02,-0.86
6.142e-02,-1.02,-1.14
6.144e-02,-1.1,-0.78
6.146e-02,-0.94,-1.1
6.148e-02,-1.02,-0.72
6.150e-02,-0.82,-1.12
6.151e-02,-1,-0.76
6.153e-02,-0.96,-1.1
6.155e-02,-1.02,-0.84
6.157e-02,-1.02,-1.1
6.159e-02,-1.04,-0.78
6.161e-02,-0.94,-1.12
6.163e-02,-1.06,-0.82
6.165e-02,-1.04,-1.12
6.167e-02,-0.96,-0.86
6.169e-02,-1.1,-1.16
6.171e-02,-0.88,-0.8
6.173e-02,-0.94,-1.18
6.175e-02,-0.94,-0.82
6.176e-02,-1.02,-1.12
6.178e-02,-0.88,-0.78
6.180e-02,-1,-1.14
6.182e-02,-1,-0.84
6.184e-02,-0.94,-1.1
6.186e-02,-0.92,-0.8
6.188e-02,-0.96,-1.1
6.190e-02,-0.88,-0.8
6.192e-02,-1,-1.14
6.194e-02,-0.92,-0.84
6.196e-02,-0.86,-1.08
6.198e-02,-0.96,-0.76
6.200e-02,-0.96,-1.12
6.201e-02,-0.96,-0.86
6.203e-02,-1,-1.12
6.205e-02,-0.84,-0.82
6.207e-02,-1.04,-1.16
6.209e-02,-0.9,-0.86
6.211e-02,-0.88,-1.12
6.213e-02,-0.84,-0.76
6.215e-02,-0.88,-1.1
6.217e-02,-0.92,-0.82
6.219e-02,-0.98,-1.14
6.221e-02,-0.94,-0.78
6.223e-02,-1.1,-1.2
6.224e-02,-1.04,-0.84
6.226e-02,-0.96,-1.18
6.228e-02,-1,-0.84
6.230e-02,-0.92,-1.16
6.232e-02,-0.98,-0.8
6.234e-02,-1.04,-1.18
6.236e-02,-0.98,-0.92
6.238e-02,-0.98,-1.12
6.240e-02,-1.02,-0.86
6.242e-02,-1,-1.12
6.244e-02,-0.94,-0.8
6.246e-02,-0.88,-1.1
6.248e-02,-0.9,-0.8
6.249e-02,-0.94,-1.12
6.251e-02,-1.04,-0.8
6.253e-02,-1,-1.18
6.255e-02,-1,-0.82
6.257e-02,-0.94,-1.06
6.259e-02,-0.88,-0.82
6.261e-02,-0.92,-1.12
6.263e-02,-1.02,-0.78
6.265e-02,-0.88,-1.18
6.267e-02,-0.94,-0.82
6.269e-02,-0.9,-1.08
6.271e-02,-1.02,-0.8
6.272e-02,-1.02,-1.12
6.274e-02,-0.94,-0.76
6.276e-02,-0.92,-1.12
6.278e-02,-0.82,-0.76
6.280e-02,-0.88,-1.1
6.282e-02,-0.96,-0.78
6.284e-02,-0.98,-1.18
6.286e-02,-1,-0.86
6.288e-02,-0.92,-1.2
6.290e-02,-1.04,-0.86
6.292e-02,-1.08,-1.18
6.294e-02,-0.88,-0.78
6.296e-02,-1.02,-1.16
6.297e-02,-1,-0.9
6.299e-02,-1.04,-1.2
6.301e-02,-0.92,-0.82
6.303e-02,-0.98,-1.1
6.305e-02,-1,-0.9
6.307e-02,-1.08,-1.12
6.309e-02,-1,-0.82
6.311e-02,-1.04,-1.14
6.313e-02,-0.92,-0.84
6.315e-02,-0.98,-1.1
6.317e-02,-0.96,-0.8
6.319e-02,-0.9,-1.1
6.320e-02,-1.02,-0.88
6.322e-02,-0.88,-1.12
6.324e-02,-0.94,-0.82
6.326e-02,-1.02,-1.12
6.328e-02,-0.86,-0.72
6.330e-02,-1.06,-1.2
6.332e-02,-0.96,-0.84
6.334e-02,-0.9,-1.12
6.336e-02,-1.08,-0.84
6.338e-02,-1.04,-1.18
6.340e-02,-1.08,-0.84
6.342e-02,-0.88,-1.06
6.344e-02,-0.92,-0.76
6.345e-02,-0.92,-1.1
6.347e-02,-0.98,-0.76
6.349e-02,-0.96,-1.16
6.351e-02,-0.96,-0.86
6.353e-02,-0.96,-1.16
6.355e-02,-1.08,-0.84
6.357e-02,-0.92,-1.1
6.359e-02,-1.02,-0.84
6.361e-02,-1.04,-1.1
6.363e-02,-1.02,-0.8
6.365e-02,-0.98,-1.12
6.367e-02,-0.92,-0.84
6.368e-02,-1,-1.2
6.370e-02,-1.02,-0.8
6.372e-02,-1,-1.2
6.374e-02,-1.08,-0.84
6.376e-02,-0.98,-1.14
6.378e-02,-1.04,-0.7
6.380e-02,-0.88,-1.16
6.382e-02,-0.94,-0.8
6.384e-02,-1.14,-1.18
6.386e-02,-0.96,-0.84
6.388e-02,-1,-1.1
6.390e-02,-0.92,-0.8
6.392e-02,-0.92,-1.22
6.393e-02,-0.98,-0.8
6.395e-02,-1.08,-1.16
6.397e-02,-0.82,-0.74
6.399e-02,-1.14,-1.16
6.401e-02,-0.98,-0.78
6.403e-02,-0.96,-1.1
6.405e-02,-0.94,-0.82
6.407e-02,-0.88,-1.16
6.409e-02,-1.12,-0.8
6.411e-02,-0.92,-1.1
6.413e-02,-0.84,-0.78
6.415e-02,-0.92,-1.16
6.416e-02,-0.92,-0.76
6.418e-02,-1.16,-1.2
6.420e-02,-1,-0.76
6.422e-02,-1.02,-1.2
6.424e-02,-1.02,-0.78
6.426e-02,-0.98,-1.18
6.428e-02,-1.04,-0.9
6.430e-02,-1.1,-1.18
6.432e-02,-0.96,-0.84
6.434e-02,-1.04,-1.08
6.436e-02,-0.94,-0.8
6.438e-02,-0.94,-1.16
6.440e-02,-1.04,-0.84
6.441e-02,-0.94,-1.12
6.443e-02,-1.04,-0.86
6.445e-02,-0.86,-1.12
6.447e-02,-0.98,-0.8
6.449e-02,-0.98,-1.14
6.451e-02,-0.94,-0.86
6.453e-02,-1.02,-1.16
6.455e-02,-0.94,-0.72
6.457e-02,-1.12,-1.18
6.459e-02,-0.98,-0.76
6.461e-02,-0.9,-1.16
6.463e-02,-1.02,-0.86
6.464e-02,-1.16,-1.18
6.466e-02,-1.02,-0.88
6.468e-02,-1.06,-1.16
6.470e-02,-0.94,-0.86
6.472e-02,-0.98,-1.12
6.474e-02,-0.98,-0.8
6.476e-02,-0.8,-1.08
6.478e-02,-0.94,-0.76
6.480e-02,-1,-1.1
6.482e-02,-1,-0.84
6.484e-02,-0.92,-1.14
6.486e-02,-0.98,-0.84
6.488e-02,-1.06,-1.18
6.489e-02,-1.1,-0.84
6.491e-02,-0.94,-1.16
6.493e-02,-0.98,-0.86
6.495e-02,-0.94,-1.06
6.497e-02,-0.96,-0.76
6.499e-02,-0.84,-1.1
6.501e-02,-0.96,-0.78
6.503e-02,-1.08,-1.1
6.505e-02,-0.84,-0.78
6.507e-02,-0.86,-1.04
6.509e-02,-1,-0.76
6.511e-02,-0.88,-1.16
6.512e-02,-1.06,-0.84
6.514e-02,-1.06,-1.18
6.516e-02,-0.92,-0.8
6.518e-02,-1.06,-1.14
6.520e-02,-0.94,-0.84
6.522e-02,-1,-1.16
6.524e-02,-0.94,-0.86
6.526e-02,-0.98,-1.22
6.528e-02,-1.02,-0.78
6.530e-02,-0.92,-1.16
6.532e-02,-1,-0.82
6.534e-02,-0.86,-1.06
6.536e-02,-0.84,-0.78
6.537e-02,-0.98,-1.1
6.539e-02,-0.94,-0.7
6.541e-02,-0.96,-1.14
6.543e-02,-0.9,-0.8
6.545e-02,-0.96,-1.24
6.547e-02,-1.02,-0.78
6.549e-02,-0.9,-1.1
6.551e-02,-0.96,-0.82
6.553e-02,-0.96,-1.16
6.555e-02,-0.86,-0.82
6.557e-02,-1,-1.16
6.559e-02,-1.02,-0.78
6.560e-02,-0.86,-1.1
6.562e-02,-1.06,-0.78
6.564e-02,-0.88,-1.1
6.566e-02,-1.02,-0.82
6.568e-02,-1.08,-1.18
6.570e-02,-0.98,-0.92
6.572e-02,-0.98,-1.16
6.574e-02,-1.02,-0.84
6.576e-02,-0.94,-1.16
6.578e-02,-0.9,-0.78
6.580e-02,-0.82,-1.18
6.582e-02,-1.04,-0.76
6.584e-02,-0.92,-1.18
6.585e-02,-0.96,-0.84
6.587e-02,-1.02,-1.2
6.589e-02,-0.96,-0.8
6.591e-02,-1,-1.2
6.593e-02,-0.98,-0.8
6.595e-02,-0.96,-1.16
6.597e-02,-1.02,-0.82
6.599e-02,-0.9,-1.18
6.601e-02,-1.06,-0.84
6.603e-02,-1.14,-1.24
6.605e-02,-1.06,-0.82
6.607e-02,-1.08,-1.14
6.608e-02,-0.9,-0.82
6.610e-02,-1.1,-1.16
6.612e-02,-0.8,-0.76
6.614e-02,-0.98,-1.14
6.616e-02,-1.06,-0.82
6.618e-02,-0.98,-1.16
6.620e-02,-1.04,-0.9
6.622e-02,-0.94,-1.14
6.624e-02,-0.96,-0.78
6.626e-02,-0.86,-1.16
6.628e-02,-1.06,-0.76
6.630e-02,-1.06,-1.22
6.632e-02,-1.02,-0.9
6.633e-02,-1.02,-1.24
6.635e-02,-0.94,-0.78
6.637e-02,-1.12,-1.22
6.639e-02,-1,-0.86
6.641e-02,-1,-1.12
6.643e-02,-0.9,-0.84
6.645e-02,-1,-1.1
6.647e-02,-0.96,-0.76
6.649e-02,-0.96,-1.16
6.651e-02,-1.1,-0.84
6.653e-02,-0.86,-1.26
6.655e-02,-1.12,-0.84
6.656e-02,-0.9,-1.04
6.658e-02,-0.88,-0.78
6.660e-02,-0.96,-1.14
6.662e-02,-0.96,-0.88
6.664e-02,-1.04,-1.2
6.666e-02,-0.98,-0.8
6.668e-02,-1.06,-1.22
6.670e-02,-1.12,-0.88
6.672e-02,-0.9,-1.14
6.674e-02,-1.02,-0.82
6.676e-02,-1,-1.14
6.678e-02,-0.94,-0.8
6.680e-02,-1.16,-1.18
6.681e-02,-1.04,-0.94
6.683e-02,-0.98,-1.1
6.685e-02,-0.9,-0.74
6.687e-02,-0.96,-1.18
6.689e-02,-1.06,-0.9
6.691e-02,-0.96,-1.18
6.693e-02,-1.06,-0.9
6.695e-02,-1.06,-1.1
6.697e-02,-0.94,-0.86
6.699e-02,-1.04,-1.12
6.701e-02,-0.98,-0.86
6.703e-02,-0.94,-1.2
6.704e-02,-1.08,-0.86
6.706e-02,-0.94,-1.1
6.708e-02,-0.96,-0.84
6.710e-02,-0.9,-1.16
6.712e-02,-1.04,-0.78
6.714e-02,-1.02,-1.18
6.716e-02,-0.9,-0.74
6.718e-02,-1.06,-1.12
6.720e-02,-0.94,-0.82
6.722e-02,-0.94,-1.12
6.724e-02,-1.08,-0.8
6.726e-02,-0.96,-1.16
6.728e-02,-0.98,-0.78
6.729e-02,-1.06,-1.24
6.731e-02,-1.12,-0.88
6.733e-02,-1.06,-1.16
6.735e-02,-1,-0.82
6.737e-02,-1,-1.16
6.739e-02,-1.06,-0.84
6.741e-02,-1.02,-1.18
6.743e-02,-0.94,-0.7
6.745e-02,-1.14,-1.16
6.747e-02,-0.9,-0.8
6.749e-02,-1.08,-1.16
6.751e-02,-0.94,-0.8
6.752e-02,-0.88,-1.18
6.754e-02,-1.04,-0.82
6.756e-02,-1.04,-1.12
6.758e-02,-0.92,-0.8
6.760e-02,-0.9,-1.12
6.762e-02,-0.94,-0.76
6.764e-02,-1.04,-1.16
6.766e-02,-0.8,-0.74
6.768e-02,-1.06,-1.14
6.770e-02,-0.88,-0.7
6.772e-02,-0.78,-1.14
6.774e-02,-1.08,-0.7
6.776e-02,-0.88,-1.1
6.777e-02,-0.94,-0.82
6.779e-02,-0.94,-1.14
6.781e-02,-0.92,-0.86
6.783e-02,-1.02,-1.2
6.785e-02,-1.1,-0.78
6.787e-02,-0.9,-1.12
6.789e-02,-1,-0.76
6.791e-02,-0.88,-1.1
6.793e-02,-1.06,-0.82
6.795e-02,-0.96,-1.2
6.797e-02,-1.12,-0.9
6.799e-02,-1.1,-1.2
6.801e-02,-0.96,-0.9
6.802e-02,-1.06,-1.22
6.804e-02,-0.94,-0.74
6.806e-02,-0.92,-1.26
6.808e-02,-1.16,-0.88
6.810e-02,-1.06,-1.18
6.812e-02,-1.04,-0.92
6.814e-02,-1.02,-1.08
6.816e-02,-0.92,-0.8
6.818e-02,-0.98,-1.06
6.820e-02,-0.9,-0.82
6.822e-02,-0.94,-1.18
6.824e-02,-1.12,-0.82
6.825e-02,-0.9,-1.12
6.827e-02,-1,-0.82
6.829e-02,-1,-1.16
6.831e-02,-0.98,-0.76
6.833e-02,-1.1,-1.16
6.835e-02,-0.92,-0.76
6.837e-02,-1.02,-1.12
6.839e-02,-1.02,-0.84
6.841e-02,-1.02,-1.2
6.843e-02,-1,-0.82
6.845e-02,-0.86,-1.14
6.847e-02,-0.94,-0.82
6.849e-02,-1,-1.16
6.850e-02,-1.1,-0.9
6.852e-02,-1.04,-1.2
6.854e-02,-1.02,-0.9
6.856e-02,-0.92,-1.04
6.858e-02,-0.98,-0.74
6.860e-02,-0.84,-1.22
6.862e-02,-1.08,-0.8
6.864e-02,-0.96,-1.16
6.866e-02,-0.92,-0.82
6.868e-02,-1.16,-1.24
6.870e-02,-0.98,-0.82
6.872e-02,-1,-1.18
6.873e-02,-0.98,-0.84
6.875e-02,-0.92,-1.14
6.877e-02,-0.94,-0.8
6.879e-02,-0.94,-1.22
6.881e-02,-0.92,-0.84
6.883e-02,-0.96,-1.1
6.885e-02,-0.86,-0.76
6.887e-02,-1.02,-1.2
6.889e-02,-0.98,-0.8
6.891e-02,-1.02,-1.16
6.893e-02,-0.96,-0.82
6.895e-02,-0.88,-1.16
6.897e-02,-1.06,-0.84
6.898e-02,-1.1,-1.18
6.900e-02,-1.02,-0.76
6.902e-02,-1.04,-1.18
6.904e-02,-1,-0.84
6.906e-02,-0.98,-1.1
6.908e-02,-0.9,-0.82
6.910e-02,-0.84,-1.08
6.912e-02,-0.98,-0.76
6.914e-02,-0.86,-1.16
6.916e-02,-0.96,-0.8
6.918e-02,-0.96,-1.12
6.920e-02,-0.92,-0.78
6.921e-02,-1,-1.08
6.923e-02,-0.9,-0.82
6.925e-02,-0.94,-1.1
6.927e-02,-0.84,-0.72
6.929e-02,-1,-1.12
6.931e-02,-0.96,-0.86
6.933e-02,-0.92,-1.1
6.935e-02,-1.06,-0.86
6.937e-02,-0.98,-1.18
6.939e-02,-0.96,-0.86
6.941e-02,-1,-1.16
6.943e-02,-1,-0.88
6.945e-02,-1.1,-1.18
6.946e-02,-0.96,-0.76
6.948e-02,-1.02,-1.18
6.950e-02,-1.08,-0.9
6.952e-02,-1.02,-1.2
6.954e-02,-0.9,-0.8
6.956e-02,-1.1,-1.14
6.958e-02,-0.78,-0.72
6.960e-02,-1.08,-1.16
6.962e-02,-1.02,-0.74
6.964e-02,-0.82,-1.18
6.966e-02,-1.02,-0.76
6.968e-02,-0.96,-1.14
6.969e-02,-0.94,-0.78
6.971e-02,-1,-1.16
6.973e-02,-1.04,-0.8
6.975e-02,-1.04,-1.14
6.977e-02,-0.94,-0.88
6.979e-02,-1,-1.2
6.981e-02,-1.14,-0.8
6.983e-02,-0.98,-1.06
6.985e-02,-0.96,-0.82
6.987e-02,-0.98,-1.22
6.989e-02,-1,-0.88
6.991e-02,-1.02,-1.1
6.993e-02,-0.84,-0.78
6.994e-02,-0.98,-1.18
6.996e-02,-0.86,-0.76
6.998e-02,-1,-1.16
7.000e-02,-1.12,-0.92
7.002e-02,-0.92,-1.1
7.004e-02,-0.98,-0.8
7.006e-02,-0.98,-1.12
7.008e-02,-0.96,-0.82
7.010e-02,-0.98,-1.14
7.012e-02,-0.98,-0.8
7.014e-02,-0.96,-1.16
7.016e-02,-1.1,-0.86
7.017e-02,-1.02,-1.1
7.019e-02,-1.04,-0.86
7.021e-02,-1.02,-1.14
7.023e-02,-0.92,-0.78
7.025e-02,-0.96,-1.2
7.027e-02,-0.98,-0.8
7.029e-02,-1.1,-1.14
7.031e-02,-1,-0.9
7.033e-02,-0.9,-1.1
7.035e-02,-1.02,-0.8
7.037e-02,-0.94,-1.12
7.039e-02,-1.02,-0.84
7.041e-02,-0.98,-1.08
7.042e-02,-0.98,-0.76
7.044e-02,-1.1,-1.2
7.046e-02,-0.92,-0.86
7.048e-02,-0.98,-1.1
7.050e-02,-0.98,-0.78
7.052e-02,-0.9,-1.08
7.054e-02,-0.96,-0.82
7.056e-02,-1,-1.18
7.058e-02,-1.08,-0.92
7.060e-02,-1.02,-1.16
7.062e-02,-0.92,-0.86
7.064e-02,-1.06,-1.18
7.065e-02,-0.92,-0.82
7.067e-02,-0.94,-1.08
7.069e-02,-0.92,-0.82
7.071e-02,-1.02,-1.16
7.073e-02,-1.06,-0.82
7.075e-02,-0.92,-1.2
7.077e-02,-0.94,-0.86
7.079e-02,-1.04,-1.14
7.081e-02,-0.98,-0.8
7.083e-02,-0.98,-1.2
7.085e-02,-1.08,-0.82
7.087e-02,-0.9,-1.06
7.089e-02,-0.96,-0.78
7.090e-02,-0.82,-1.1
7.092e-02,-1.04,-0.78
7.094e-02,-0.94,-1.12
7.096e-02,-0.96,-0.82
7.098e-02,-1,-1.08
7.100e-02,-0.92,-0.82
7.102e-02,-1.02,-1.1
7.104e-02,-0.94,-0.8
7.106e-02,-1,-1.12
7.108e-02,-0.98,-0.84
7.110e-02,-0.98,-1.18
7.112e-02,-0.96,-0.86
7.113e-02,-1.12,-1.18
7.115e-02,-0.92,-0.8
7.117e-02,-0.9,-1.1
7.119e-02,-1,-0.8
7.121e-02,-0.96,-1.16
7.123e-02,-0.94,-0.82
7.125e-02,-0.94,-1.2
7.127e-02,-0.98,-0.84
7.129e-02,-1.02,-1.16
7.131e-02,-0.98,-0.78
7.133e-02,-0.96,-1.12
7.135e-02,-0.96,-0.8
7.137e-02,-0.9,-1.08
7.138e-02,-0.96,-0.76
7.140e-02,-0.94,-1.16
7.142e-02,-1.04,-0.84
7.144e-02,-1.02,-1.14
7.146e-02,-0.98,-0.84
7.148e-02,-1.06,-1.24
7.150e-02,-1.02,-0.78
7.152e-02,-1,-1.12
7.154e-02,-0.96,-0.8
7.156e-02,-0.88,-1.2
7.158e-02,-1.02,-0.82
7.160e-02,-1.12,-1.22
7.161e-02,-0.96,-0.86
7.163e-02,-0.98,-1.18
7.165e-02,-0.92,-0.82
7.167e-02,-0.9,-1.12
7.169e-02,-0.94,-0.74
7.171e-02,-1.06,-1.14
7.173e-02,-1,-0.8
7.175e-02,-1.08,-1.16
7.177e-02,-1.02,-0.84
7.179e-02,-0.96,-1.16
7.181e-02,-0.94,-0.82
7.183e-02,-1.04,-1.12
7.185e-02,-0.88,-0.78
7.186e-02,-1.06,-1.1
7.188e-02,-0.98,-0.84
7.190e-02,-0.9,-1.14
7.192e-02,-1.06,-0.8
7.194e-02,-0.96,-1.1
7.196e-02,-1,-0.86
7.198e-02,-1.06,-1.18
7.200e-02,-0.94,-0.84
7.202e-02,-1.18,-1.22
7.204e-02,-1,-0.86
7.206e-02,-1.1,-1.24
7.208e-02,-0.9,-0.82
7.209e-02,-1.06,-1.22
7.211e-02,-1.08,-0.88
7.213e-02,-0.92,-1.1
7.215e-02,-0.84,-0.78
7.217e-02,-1.02,-1.22
7.219e-02,-1.1,-0.76
7.221e-02,-1.1,-1.18
7.223e-02,-0.98,-0.86
7.225e-02,-0.92,-1.26
7.227e-02,-1.02,-0.82
7.229e-02,-1.2,-1.28
7.231e-02,-1.08,-0.8
7.233e-02,-0.98,-1.08
7.234e-02,-0.78,-0.74
7.236e-02,-1,-1.14
7.238e-02,-1,-0.86
7.240e-02,-1,-1.14
7.242e-02,-0.92,-0.88
7.244e-02,-0.9,-1.12
7.246e-02,-1.04,-0.8
7.248e-02,-0.92,-1.1
7.250e-02,-1,-0.78
7.252e-02,-1.02,-1.24
7.254e-02,-1.08,-0.84
7.256e-02,-0.94,-1.16
7.257e-02,-0.98,-0.8
7.259e-02,-1.06,-1.18
7.261e-02,-1.14,-0.84
7.263e-02,-0.94,-1.14
7.265e-02,-0.9,-0.76
7.267e-02,-1,-1.18
7.269e-02,-1.04,-0.82
7.271e-02,-0.92,-1.1
7.273e-02,-0.96,-0.74
7.275e-02,-1,-1.18
7.277e-02,-0.92,-0.84
7.279e-02,-1,-1.14
7.281e-02,-0.98,-0.84
7.282e-02,-0.92,-1.12
7.284e-02,-1.06,-0.76
7.286e-02,-1.06,-1.2
7.288e-02,-0.76,-0.72
7.290e-02,-1.1,-1.16
7.292e-02,-0.92,-0.84
7.294e-02,-0.98,-1.2
7.296e-02,-0.96,-0.8
7.298e-02,-1.06,-1.14
7.300e-02,-0.9,-0.78
7.302e-02,-1.06,-1.12
7.304e-02,-0.96,-0.8
7.305e-02,-1.02,-1.16
7.307e-02,-1.08,-0.82
7.309e-02,-1.02,-1.16
7.311e-02,-0.98,-0.82
7.313e-02,-0.98,-1.1
7.315e-02,-1.02,-0.78
7.317e-02,-0.94,-1.14
7.319e-02,-0.98,-0.86
7.321e-02,-1.04,-1.14
7.323e-02,-0.92,-0.7
7.325e-02,-1,-1.14
7.327e-02,-0.9,-0.8
7.329e-02,-0.86,-1.12
7.330e-02,-1.04,-0.78
7.332e-02,-0.94,-1.12
7.334e-02,-1,-0.86
7.336e-02,-0.98,-1.18
7.338e-02,-1.08,-0.84
7.340e-02,-1.1,-1.14
7.342e-02,-1.02,-0.88
7.344e-02,-0.98,-1.2
7.346e-02,-1,-0.82
7.348e-02,-0.88,-1.12
7.350e-02,-0.96,-0.84
7.352e-02,-0.94,-1.14
7.353e-02,-1.04,-0.84
7.355e-02,-1.08,-1.14
7.357e-02,-0.94,-0.76
7.359e-02,-1,-1.08
7.361e-02,-0.94,-0.8
7.363e-02,-1,-1.16
7.365e-02,-1.08,-0.82
7.367e-02,-0.96,-1.2
7.369e-02,-1.06,-0.84
7.371e-02,-0.88,-1.24
7.373e-02,-1.02,-0.78
7.375e-02,-0.98,-1.12
7.377e-02,-0.9,-0.78
7.378e-02,-0.92,-1.18
7.380e-02,-1.02,-0.76
7.382e-02,-1.04,-1.14
7.384e-02,-1.02,-0.8
7.386e-02,-1,-1.1
7.388e-02,-1.02,-0.84
7.390e-02,-0.86,-1.16
7.392e-02,-1,-0.78
7.394e-02,-1.02,-1.06
7.396e-02,-0.84,-0.74
7.398e-02,-1.04,-1.1
7.400e-02,-0.96,-0.88
7.401e-02,-0.98,-1.08
7.403e-02,-0.98,-0.78
7.405e-02,-0.94,-1.1
7.407e-02,-0.94,-0.82
7.409e-02,-1,-1.14
7.411e-02,-1.06,-0.92
7.413e-02,-1.04,-1.1
7.415e-02,-0.96,-0.84
7.417e-02,-1,-1.28
7.419e-02,-1.02,-0.8
7.421e-02,-0.92,-1.22
7.423e-02,-1.18,-0.88
7.425e-02,-1.04,-1.2
7.426e-02,-0.96,-0.88
7.428e-02,-1.02,-1.18
7.430e-02,-1.08,-0.84
7.432e-02,-1.1,-1.16
7.434e-02,-0.98,-0.86
7.436e-02,-1.02,-1.14
7.438e-02,-0.94,-0.86
7.440e-02,-0.94,-1.16
7.442e-02,-1.06,-0.88
7.444e-02,-1.02,-1.12
7.446e-02,-0.78,-0.74
7.448e-02,-1,-1.12
7.450e-02,-0.98,-0.82
7.451e-02,-1.08,-1.18
7.453e-02,-0.88,-0.82
7.455e-02,-1.02,-1.14
7.457e-02,-1,-0.8
7.459e-02,-0.88,-1.14
7.461e-02,-0.98,-0.84
7.463e-02,-0.9,-1.04
7.465e-02,-0.88,-0.8
7.467e-02,-0.9,-1.08
7.469e-02,-0.96,-0.76
7.471e-02,-1.04,-1.16
7.473e-02,-1.02,-0.82
7.474e-02,-0.9,-1.12
7.476e-02,-0.94,-0.76
7.478e-02,-1.02,-1.12
7.480e-02,-0.88,-0.82
7.482e-02,-0.96,-1.18
7.484e-02,-1,-0.84
7.486e-02,-0.92,-1.16
7.488e-02,-1.04,-0.82
7.490e-02,-1.06,-1.26
7.492e-02,-1.04,-0.86
7.494e-02,-1.06,-1.18
7.496e-02,-0.94,-0.8
7.498e-02,-1.04,-1.14
7.499e-02,-1.06,-0.76
7.501e-02,-0.94,-1.16
7.503e-02,-0.92,-0.74
7.505e-02,-0.96,-1.14
7.507e-02,-1,-0.88
7.509e-02,-1.02,-1.14
7.511e-02,-1.02,-0.82
7.513e-02,-0.94,-1.14
7.515e-02,-0.94,-0.84
7.517e-02,-1.08,-1.12
7.519e-02,-0.94,-0.84
7.521e-02,-1.06,-1.18
7.522e-02,-1,-0.92
7.524e-02,-1.06,-1.16
7.526e-02,-0.94,-0.8
7.528e-02,-1,-1.14
7.530e-02,-0.96,-0.84
7.532e-02,-1.02,-1.14
7.534e-02,-1.04,-0.76
7.536e-02,-0.84,-1.26
7.538e-02,-1,-0.74
7.540e-02,-1,-1.18
7.542e-02,-1.06,-0.76
7.544e-02,-0.84,-1.14
7.546e-02,-0.98,-0.76
7.547e-02,-1,-1.1
7.549e-02,-0.92,-0.82
7.551e-02,-0.98,-1.14
7.553e-02,-0.94,-0.82
7.555e-02,-0.96,-1.14
7.557e-02,-0.96,-0.88
7.559e-02,-1.04,-1.18
7.561e-02,-1.02,-0.82
7.563e-02,-1,-1.2
7.565e-02,-0.96,-0.88
7.567e-02,-1.08,-1.14
7.569e-02,-0.98,-0.84
7.570e-02,-0.94,-1.12
7.572e-02,-0.94,-0.82
7.574e-02,-0.96,-1.12
7.576e-02,-1.02,-0.86
7.578e-02,-0.94,-1.12
7.580e-02,-0.92,-0.82
7.582e-02,-0.88,-1.16
7.584e-02,-0.86,-0.76
7.586e-02,-1.06,-1.1
7.588e-02,-0.96,-0.78
7.590e-02,-0.86,-1.24
7.592e-02,-1.1,-0.76
7.594e-02,-1.02,-1.1
7.595e-02,-1,-0.78
7.597e-02,-1.08,-1.2
7.599e-02,-1,-0.86
7.601e-02,-0.94,-1.18
7.603e-02,-0.92,-0.9
7.605e-02,-1.06,-1.2
7.607e-02,-0.92,-0.88
7.609e-02,-0.98,-1.12
7.611e-02,-0.96,-0.84
7.613e-02,-0.88,-1.1
7.615e-02,-0.98,-0.86
7.617e-02,-0.96,-1.14
7.618e-02,-1.04,-0.7
7.620e-02,-1.08,-1.18
7.622e-02,-0.92,-0.86
7.624e-02,-1.02,-1.18
7.626e-02,-1.1,-0.78
7.628e-02,-1,-1.1
7.630e-02,-1.02,-0.84
7.632e-02,-0.94,-1.18
7.634e-02,-0.94,-0.84
7.636e-02,-0.96,-1.16
7.638e-02,-1.04,-0.82
7.640e-02,-1,-1.16
7.642e-02,-0.9,-0.84
7.643e-02,-1.02,-1.14
7.645e-02,-1.06,-0.88
7.647e-02,-0.94,-1.14
7.649e-02,-1.06,-0.78
7.651e-02,-0.86,-1.26
7.653e-02,-1.04,-0.82
7.655e-02,-1.06,-1.18
7.657e-02,-0.98,-0.94
7.659e-02,-1,-1.14
7.661e-02,-1.02,-0.88
7.663e-02,-0.94,-1.06
7.665e-02,-0.9,-0.78
7.666e-02,-0.92,-1.1
7.668e-02,-0.94,-0.78
7.670e-02,-1.06,-1.14
7.672e-02,-0.96,-0.88
7.674e-02,-1.1,-1.14
7.676e-02,-0.92,-0.86
7.678e-02,-0.94,-1.1
7.680e-02,-0.94,-0.76
7.682e-02,-0.88,-1.2
7.684e-02,-0.94,-0.8
7.686e-02,-0.94,-1.14
7.688e-02,-0.84,-0.74
7.690e-02,-0.9,-1.14
7.691e-02,-0.96,-0.86
7.693e-02,-1.06,-1.12
7.695e-02,-0.92,-0.84
7.697e-02,-0.98,-1.14
7.699e-02,-1.06,-0.86
7.701e-02,-1.04,-1.18
7.703e-02,-1.1,-0.82
7.705e-02,-1,-1.1
7.707e-02,-0.98,-0.8
7.709e-02,-0.94,-1.16
7.711e-02,-0.96,-0.82
7.713e-02,-0.96,-1.08
7.714e-02,-0.98,-0.78
7.716e-02,-0.94,-1.24
7.718e-02,-1.06,-0.78
7.720e-02,-0.96,-1.14
7.722e-02,-0.98,-0.74
7.724e-02,-1.02,-1.1
7.726e-02,-0.94,-0.7
7.728e-02,-0.84,-1.18
7.730e-02,-0.96,-0.74
7.732e-02,-1.02,-1.14
7.734e-02,-0.86,-0.8
7.736e-02,-0.98,-1.32
7.738e-02,-0.94,-0.8
7.739e-02,-0.88,-1.1
7.741e-02,-0.98,-0.78
7.743e-02,-1.02,-1.16
7.745e-02,-1,-0.78
7.747e-02,-1.04,-1.2
7.749e-02,-0.88,-0.78
7.751e-02,-0.96,-1.1
7.753e-02,-1.06,-0.76
7.755e-02,-0.96,-1.16
7.757e-02,-1.06,-0.9
7.759e-02,-1,-1.12
7.761e-02,-1,-0.84
7.762e-02,-1.1,-1.14
7.764e-02,-0.98,-0.82
7.766e-02,-1,-1.16
7.768e-02,-1.06,-0.82
7.770e-02,-1.04,-1.22
7.772e-02,-1.14,-0.88
7.774e-02,-1.08,-1.2
7.776e-02,-1,-0.76
7.778e-02,-0.92,-1.06
7.780e-02,-0.88,-0.76
7.782e-02,-0.98,-1.16
7.784e-02,-0.92,-0.86
7.786e-02,-0.98,-1.2
7.787e-02,-1.04,-0.8
7.789e-02,-0.98,-1.08
7.791e-02,-0.94,-0.82
7.793e-02,-0.96,-1.14
7.795e-02,-0.9,-0.8
7.797e-02,-1,-1.1
7.799e-02,-0.84,-0.8
7.801e-02,-1.02,-1.18
7.803e-02,-0.92,-0.82
7.805e-02,-0.84,-1.18
7.807e-02,-1.04,-0.8
7.809e-02,-0.92,-1.16
7.810e-02,-1.08,-0.8
7.812e-02,-0.92,-1.12
7.814e-02,-0.94,-0.82
7.816e-02,-0.94,-1.12
7.818e-02,-0.98,-0.84
7.820e-02,-0.88,-1.22
7.822e-02,-1.1,-0.84
7.824e-02,-1.04,-1.18
7.826e-02,-0.96,-0.78
7.828e-02,-1,-1.1
7.830e-02,-0.92,-0.82
7.832e-02,-1.08,-1.12
7.834e-02,-0.96,-0.76
7.835e-02,-1.06,-1.12
7.837e-02,-0.9,-0.8
7.839e-02,-0.92,-1.14
7.841e-02,-1.06,-0.78
7.843e-02,-0.96,-1.12
7.845e-02,-0.94,-0.84
7.847e-02,-1.08,-1.14
7.849e-02,-0.98,-0.84
7.851e-02,-1.02,-1.16
7.853e-02,-0.82,-0.82
7.855e-02,-1,-1.14
7.857e-02,-0.96,-0.84
7.858e-02,-0.9,-1.06
7.860e-02,-0.86,-0.78
7.862e-02,-0.9,-1.1
7.864e-02,-0.88,-0.84
7.866e-02,-0.92,-1.16
7.868e-02,-0.9,-0.82
7.870e-02,-1,-1.1
7.872e-02,-0.96,-0.82
7.874e-02,-0.82,-1.12
7.876e-02,-1.06,-0.72
7.878e-02,-1.02,-1.12
7.880e-02,-0.96,-0.82
7.882e-02,-0.94,-1.08
7.883e-02,-0.82,-0.8
7.885e-02,-1.02,-1.16
7.887e-02,-0.88,-0.82
7.889e-02,-1,-1.12
7.891e-02,-0.96,-0.86
7.893e-02,-0.98,-1.1
7.895e-02,-1,-0.84
7.897e-02,-0.98,-1.14
7.899e-02,-0.94,-0.82
7.901e-02,-1,-1.16
7.903e-02,-1.08,-0.9
7.905e-02,-1.08,-1.1
7.906e-02,-0.94,-0.8
7.908e-02,-0.92,-1.16
7.910e-02,-1.04,-0.8
7.912e-02,-0.9,-1.16
7.914e-02,-1.14,-0.88
7.916e-02,-1.08,-1.16
7.918e-02,-0.86,-0.82
7.920e-02,-1.1,-1.24
7.922e-02,-1.1,-0.8
7.924e-02,-0.94,-1.08
7.926e-02,-0.96,-0.84
7.928e-02,-0.92,-1.12
7.930e-02,-0.98,-0.86
7.931e-02,-0.94,-1.14
7.933e-02,-1.04,-0.76
7.935e-02,-0.96,-1.14
7.937e-02,-0.96,-0.82
7.939e-02,-1.08,-1.16
7.941e-02,-1,-0.88
7.943e-02,-0.96,-1.08
7.945e-02,-1.02,-0.84
7.947e-02,-0.88,-1.1
7.949e-02,-0.96,-0.82
7.951e-02,-0.88,-1.16
7.953e-02,-1,-0.78
7.954e-02,-1.02,-1.2
7.956e-02,-1.04,-0.82
7.958e-02,-1.1,-1.14
7.960e-02,-0.84,-0.78
7.962e-02,-0.96,-1.12
7.964e-02,-1.02,-0.78
7.966e-02,-0.92,-1.16
7.968e-02,-1,-0.88
7.970e-02,-1.06,-1.12
7.972e-02,-0.9,-0.78
7.974e-02,-1.02,-1.18
7.976e-02,-1,-0.82
7.978e-02,-0.98,-1.14
7.979e-02,-1.06,-0.8
7.981e-02,-0.94,-1.18
7.983e-02,-0.88,-0.78
7.985e-02,-1,-1.1
7.987e-02,-0.96,-0.82
7.989e-02,-1.12,-1.2
7.991e-02,-0.94,-0.82
7.993e-02,-1.06,-1.1
7.995e-02,-0.96,-0.82
7.997e-02,-0.88,-1.1
7.999e-02,-1,-0.82
8.001e-02,-0.92,-1.18
8.002e-02,-1.1,-0.82
8.004e-02,-1,-1.08
8.006e-02,-0.86,-0.82
8.008e-02,-1,-1.14
8.010e-02,-0.94,-0.84
8.012e-02,-1.02,-1.18
8.014e-02,-1.04,-0.84
8.016e-02,-0.92,-1.16
8.018e-02,-1.08,-0.86
8.020e-02,-1,-1.2
8.022e-02,-0.92,-0.88
8.024e-02,-1,-1.16
8.026e-02,-0.88,-0.72
8.027e-02,-0.9,-1.2
8.029e-02,-1,-0.8
8.031e-02,-1.18,-1.24
8.033e-02,-1.08,-0.82
8.035e-02,-1,-1.14
8.037e-02,-1.04,-0.74
8.039e-02,-0.92,-1.12
8.041e-02,-0.84,-0.76
8.043e-02,-1,-1.16
8.045e-02,-1,-0.84
8.047e-02,-1,-1.1
8.049e-02,-0.94,-0.74
8.051e-02,-1.02,-1.16
8.052e-02,-1.04,-0.88
8.054e-02,-1.02,-1.2
8.056e-02,-1.06,-0.84
8.058e-02,-1.04,-1.08
8.060e-02,-0.92,-0.8
8.062e-02,-1.02,-1.1
8.064e-02,-0.98,-0.78
8.066e-02,-0.96,-1.1
8.068e-02,-1.06,-0.8
8.070e-02,-0.96,-1.14
8.072e-02,-1.1,-0.82
8.074e-02,-0.98,-1.18
8.075e-02,-1.04,-0.8
8.077e-02,-0.98,-1.18
8.079e-02,-1.06,-0.84
8.081e-02,-1.08,-1.18
8.083e-02,-1.14,-0.92
8.085e-02,-0.92,-1.14
8.087e-02,-1.1,-0.74
8.089e-02,-1,-1.2
8.091e-02,-1.02,-0.86
8.093e-02,-1,-1.14
8.095e-02,-1,-0.86
8.097e-02,-0.98,-1.18
8.099e-02,-0.92,-0.86
8.100e-02,-0.98,-1.16
8.102e-02,-1.04,-0.84
8.104e-02,-0.96,-1.1
8.106e-02,-0.9,-0.76
8.108e-02,-0.9,-1.14
8.110e-02,-0.96,-0.78
8.112e-02,-1,-1.06
8.114e-02,-0.88,-0.76
8.116e-02,-0.88,-1.1
8.118e-02,-0.84,-0.74
8.120e-02,-1,-1.12
8.122e-02,-1.1,-0.76
8.123e-02,-0.88,-1.16
8.125e-02,-1.04,-0.8
8.127e-02,-0.96,-1.14
8.129e-02,-0.98,-0.8
8.131e-02,-1,-1.28
8.133e-02,-0.8,-0.74
8.135e-02,-0.94,-1.14
8.137e-02,-0.96,-0.8
8.139e-02,-1.06,-1.18
8.141e-02,-1.14,-0.9
8.143e-02,-1,-1.2
8.145e-02,-1.08,-0.86
8.147e-02,-0.98,-1.12
8.148e-02,-0.98,-0.82
8.150e-02,-1,-1.14
8.152e-02,-0.98,-0.82
8.154e-02,-0.9,-1.16
8.156e-02,-1.1,-0.78
8.158e-02,-0.8,-1.1
8.160e-02,-0.86,-0.74
8.162e-02,-0.98,-1.18
8.164e-02,-1.04,-0.78
8.166e-02,-0.98,-1.12
8.168e-02,-0.8,-0.74
8.170e-02,-0.96,-1.2
8.171e-02,-1,-0.88
8.173e-02,-0.94,-1.16
8.175e-02,-0.94,-0.8
8.177e-02,-0.94,-1.18
8.179e-02,-1.02,-0.82
8.181e-02,-1.02,-1.12
8.183e-02,-1,-0.86
8.185e-02,-1.06,-1.12
8.187e-02,-0.92,-0.82
8.189e-02,-1,-1.18
8.191e-02,-1.06,-0.88
8.193e-02,-0.92,-1.16
8.195e-02,-0.96,-0.84
8.196e-02,-1.12,-1.16
8.198e-02,-1.08,-0.84
8.200e-02,-1.02,-1.1
8.202e-02,-0.94,-0.8
8.204e-02,-0.94,-1.2
8.206e-02,-0.84,-0.76
8.208e-02,-0.94,-1.12
8.210e-02,-0.98,-0.8
8.212e-02,-1,-1.14
8.214e-02,-1.04,-0.8
8.216e-02,-1.06,-1.14
8.218e-02,-0.94,-0.82
8.219e-02,-0.96,-1.14
8.221e-02,-0.84,-0.8
8.223e-02,-0.92,-1.14
8.225e-02,-1,-0.76
8.227e-02,-1.06,-1.14
8.229e-02,-0.96,-0.8
8.231e-02,-0.96,-1.16
8.233e-02,-0.94,-0.86
8.235e-02,-1.08,-1.16
8.237e-02,-1.02,-0.78
8.239e-02,-1.02,-1.16
8.241e-02,-1.08,-0.86
8.243e-02,-0.98,-1.22
8.244e-02,-1.06,-0.8
8.246e-02,-0.94,-1.1
8.248e-02,-1.04,-0.8
8.250e-02,-1.06,-1.16
8.252e-02,-0.98,-0.94
8.254e-02,-1.06,-1.16
8.256e-02,-0.94,-0.8
8.258e-02,-1.02,-1.16
8.260e-02,-0.98,-0.8
8.262e-02,-0.9,-1.16
8.264e-02,-1.1,-0.82
8.266e-02,-1.16,-1.26
8.267e-02,-0.9,-0.84
8.269e-02,-1.04,-1.2
8.271e-02,-1.02,-0.86
8.273e-02,-1.12,-1.18
8.275e-02,-1,-0.82
8.277e-02,-0.9,-1.22
8.279e-02,-1.14,-0.86
8.281e-02,-1.14,-1.24
8.283e-02,-0.92,-0.82
8.285e-02,-0.98,-1.12
8.287e-02,-0.98,-0.82
8.289e-02,-1.06,-1.1
8.291e-02,-0.9,-0.8
8.292e-02,-0.94,-1.16
8.294e-02,-1.02,-0.78
8.296e-02,-1.02,-1.2
8.298e-02,-1.02,-0.86
8.300e-02,-0.92,-1.18
8.302e-02,-0.98,-0.84
8.304e-02,-1,-1.18
8.306e-02,-0.98,-0.88
8.308e-02,-1.1,-1.16
8.310e-02,-1.06,-0.88
8.312e-02,-0.96,-1.18
8.314e-02,-0.94,-0.82
8.315e-02,-1.08,-1.2
8.317e-02,-0.88,-0.78
8.319e-02,-1.12,-1.2
8.321e-02,-1.06,-0.86
8.323e-02,-1.16,-1.18
8.325e-02,-1.02,-0.9
8.327e-02,-1.08,-1.18
8.329e-02,-1.02,-0.88
8.331e-02,-0.94,-1.16
8.333e-02,-1.06,-0.86
8.335e-02,-0.84,-1.16
8.337e-02,-0.94,-0.76
8.339e-02,-1.06,-1.1
8.340e-02,-0.94,-0.78
8.342e-02,-1.02,-1.18
8.344e-02,-0.98,-0.84
8.346e-02,-1,-1.2
8.348e-02,-1.1,-0.82
8.350e-02,-0.92,-1.16
8.352e-02,-0.9,-0.78
8.354e-02,-0.92,-1.22
8.356e-02,-1,-0.82
8.358e-02,-1.12,-1.16
8.360e-02,-0.76,-0.72
8.362e-02,-1.02,-1.18
8.363e-02,-1.02,-0.86
8.365e-02,-0.94,-1.12
8.367e-02,-1.08,-0.86
8.369e-02,-1,-1.16
8.371e-02,-1,-0.76
8.373e-02,-1.14,-1.18
8.375e-02,-1.02,-0.8
8.377e-02,-0.92,-1.12
8.379e-02,-1,-0.78
8.381e-02,-0.98,-1.16
8.383e-02,-1.12,-0.92
8.385e-02,-0.98,-1.16
8.387e-02,-1.04,-0.84
8.388e-02,-0.92,-1.18
8.390e-02,-1.02,-0.82
8.392e-02,-1.08,-1.1
8.394e-02,-0.86,-0.74
8.396e-02,-1,-1.14
8.398e-02,-1.06,-0.88
8.400e-02,-0.96,-1.08
8.402e-02,-1.06,-0.8
8.404e-02,-0.86,-1.2
8.406e-02,-0.94,-0.8
8.408e-02,-0.98,-1.18
8.410e-02,-1,-0.82
8.411e-02,-1.08,-1.2
8.413e-02,-0.86,-0.8
8.415e-02,-1,-1.16
8.417e-02,-1,-0.88
8.419e-02,-0.94,-1.16
8.421e-02,-1.06,-0.9
8.423e-02,-1.04,-1.16
8.425e-02,-1.04,-0.78
8.427e-02,-1,-1.12
8.429e-02,-0.9,-0.76
8.431e-02,-1,-1.14
8.433e-02,-0.92,-0.8
8.435e-02,-1.04,-1.14
8.436e-02,-1.06,-0.82
8.438e-02,-0.94,-1.14
8.440e-02,-1,-0.84
8.442e-02,-1.06,-1.12
8.444e-02,-0.96,-0.78
8.446e-02,-0.94,-1.14
8.448e-02,-1,-0.74
8.450e-02,-1.06,-1.16
8.452e-02,-1,-0.76
8.454e-02,-0.96,-1.12
8.456e-02,-0.92,-0.82
8.458e-02,-0.96,-1.1
8.459e-02,-0.94,-0.78
8.461e-02,-0.9,-1.18
8.463e-02,-1,-0.8
8.465e-02,-1.1,-1.16
8.467e-02,-0.98,-0.88
8.469e-02,-0.92,-1.12
8.471e-02,-1.04,-0.84
8.473e-02,-0.88,-1.1
8.475e-02,-0.98,-0.74
8.477e-02,-1.08,-1.18
8.479e-02,-0.94,-0.86
8.481e-02,-1.02,-1.1
8.483e-02,-1.02,-0.82
8.484e-02,-0.98,-1.1
8.486e-02,-1,-0.8
8.488e-02,-0.92,-1.14
8.490e-02,-0.84,-0.76
8.492e-02,-0.98,-1.14
8.494e-02,-0.86,-0.8
8.496e-02,-1.02,-1.24
8.498e-02,-0.9,-0.88
8.500e-02,-1.1,-1.16
8.502e-02,-0.92,-0.86
8.504e-02,-0.94,-1.1
8.506e-02,-0.98,-0.82
8.507e-02,-0.88,-1.14
8.509e-02,-1.1,-0.86
8.511e-02,-0.94,-1.2
8.513e-02,-1.12,-0.8
8.515e-02,-1,-1.18
8.517e-02,-1,-0.8
8.519e-02,-0.96,-1.16
8.521e-02,-1.02,-0.8
8.523e-02,-1.02,-1.22
8.525e-02,-1,-0.82
8.527e-02,-0.96,-1.2
8.529e-02,-0.9,-0.86
8.531e-02,-1.14,-1.14
8.532e-02,-0.98,-0.86
8.534e-02,-0.98,-1.08
8.536e-02,-0.94,-0.8
8.538e-02,-1.02,-1.14
8.540e-02,-0.88,-0.68
8.542e-02,-0.94,-1.16
8.544e-02,-1.08,-0.76
8.546e-02,-0.94,-1.12
8.548e-02,-0.96,-0.78
8.550e-02,-0.96,-1.16
8.552e-02,-1,-0.82
8.554e-02,-1,-1.16
8.555e-02,-1.12,-0.78
8.557e-02,-0.94,-1.12
8.559e-02,-1.08,-0.84
8.561e-02,-0.98,-1.18
8.563e-02,-0.96,-0.88
8.565e-02,-1.08,-1.12
8.567e-02,-0.96,-0.78
8.569e-02,-0.88,-1.1
8.571e-02,-0.96,-0.84
8.573e-02,-1.02,-1.16
8.575e-02,-0.98,-0.76
8.577e-02,-0.86,-1.16
8.579e-02,-1.02,-0.78
8.580e-02,-1,-1.1
8.582e-02,-0.98,-0.84
8.584e-02,-0.98,-1.12
8.586e-02,-0.86,-0.84
8.588e-02,-0.86,-1.1
8.590e-02,-0.98,-0.72
8.592e-02,-0.94,-1.18
8.594e-02,-0.94,-0.82
8.596e-02,-0.92,-1.12
8.598e-02,-0.9,-0.78
8.600e-02,-1.16,-1.18
8.602e-02,-1,-0.76
8.603e-02,-1,-1.14
8.605e-02,-0.86,-0.8
8.607e-02,-0.94,-1.08
8.609e-02,-1.06,-0.72
8.611e-02,-0.96,-1.18
8.613e-02,-1.04,-0.9
8.615e-02,-0.94,-1.08
8.617e-02,-0.96,-0.76
8.619e-02,-0.98,-1.1
8.621e-02,-1,-0.82
8.623e-02,-0.96,-1.18
8.625e-02,-1.04,-0.82
8.627e-02,-0.98,-1.14
8.628e-02,-0.98,-0.76
8.630e-02,-0.94,-1.12
8.632e-02,-1,-0.82
8.634e-02,-0.98,-1.12
8.636e-02,-1.04,-0.74
8.638e-02,-0.84,-1.06
8.640e-02,-0.94,-0.76
8.642e-02,-0.94,-1.16
8.644e-02,-0.96,-0.82
8.646e-02,-0.96,-1.2
8.648e-02,-1.14,-0.9
8.650e-02,-1.02,-1.2
8.651e-02,-1.08,-0.88
8.653e-02,-1.02,-1.14
8.655e-02,-0.94,-0.82
8.657e-02,-0.9,-1.16
8.659e-02,-1.02,-0.78
8.661e-02,-1,-1.14
8.663e-02,-1,-0.88
8.665e-02,-0.92,-1.12
8.667e-02,-1,-0.72
8.669e-02,-0.96,-1.08
8.671e-02,-0.92,-0.74
8.673e-02,-0.96,-1.2
8.675e-02,-0.98,-0.82
8.676e-02,-1.02,-1.16
8.678e-02,-1,-0.86
8.680e-02,-1,-1.14
8.682e-02,-1,-0.78
8.684e-02,-1,-1.14
8.686e-02,-1,-0.8
8.688e-02,-0.94,-1.16
8.690e-02,-1.02,-0.82
8.692e-02,-1.04,-1.24
8.694e-02,-0.98,-0.84
8.696e-02,-0.9,-1.16
8.698e-02,-0.98,-0.84
8.700e-02,-1.08,-1.16
8.701e-02,-0.96,-0.78
8.703e-02,-0.84,-1.04
8.705e-02,-0.92,-0.78
8.707e-02,-0.94,-1.1
8.709e-02,-0.94,-0.76
8.711e-02,-1.04,-1.14
8.713e-02,-0.94,-0.74
8.715e-02,-0.96,-1.1
8.717e-02,-1.08,-0.88
8.719e-02,-0.92,-1.14
8.721e-02,-0.98,-0.76
8.723e-02,-1.08,-1.14
8.724e-02,-0.84,-0.82
8.726e-02,-0.98,-1.06
8.728e-02,-0.88,-0.8
8.730e-02,-0.96,-1.14
8.732e-02,-0.94,-0.76
8.734e-02,-0.98,-1.2
8.736e-02,-1.12,-0.86
8.738e-02,-0.92,-1.16
8.740e-02,-0.96,-0.8
8.742e-02,-1.02,-1.12
8.744e-02,-0.9,-0.82
8.746e-02,-0.96,-1.16
8.748e-02,-1,-0.86
8.749e-02,-1.08,-1.16
8.751e-02,-1.02,-0.9
8.753e-02,-0.94,-1.16
8.755e-02,-0.94,-0.86
8.757e-02,-1.04,-1.1
8.759e-02,-1.02,-0.9
8.761e-02,-1.08,-1.14
8.763e-02,-1.04,-0.88
8.765e-02,-0.96,-1.18
8.767e-02,-1.06,-0.84
8.769e-02,-0.96,-1.16
8.771e-02,-1.12,-0.84
8.772e-02,-1,-1.18
8.774e-02,-1.04,-0.84
8.776e-02,-1.02,-1.12
8.778e-02,-0.96,-0.82
8.780e-02,-1.06,-1.18
8.782e-02,-0.92,-0.82
8.784e-02,-0.96,-1.06
8.786e-02,-0.92,-0.76
8.788e-02,-0.96,-1.22
8.790e-02,-1,-0.76
8.792e-02,-1.08,-1.14
8.794e-02,-0.96,-0.84
8.796e-02,-0.98,-1.14
8.797e-02,-0.9,-0.84
8.799e-02,-1.06,-1.12
8.801e-02,-1,-0.8
8.803e-02,-0.88,-1.16
8.805e-02,-0.98,-0.84
8.807e-02,-1.06,-1.12
8.809e-02,-0.98,-0.84
8.811e-02,-1.04,-1.1
8.813e-02,-1,-0.86
8.815e-02,-0.98,-1.14
8.817e-02,-0.94,-0.84
8.819e-02,-1,-1.12
8.820e-02,-1,-0.84
8.822e-02,-0.9,-1.14
8.824e-02,-0.96,-0.8
8.826e-02,-0.98,-1.12
8.828e-02,-0.98,-0.84
8.830e-02,-1.06,-1.16
8.832e-02,-0.94,-0.78
8.834e-02,-1.06,-1.18
8.836e-02,-0.96,-0.86
8.838e-02,-1.02,-1.18
8.840e-02,-1.08,-0.92
8.842e-02,-1.02,-1.16
8.844e-02,-0.92,-0.8
8.845e-02,-1,-1.12
8.847e-02,-1,-0.8
8.849e-02,-0.98,-1.2
8.851e-02,-1.1,-0.82
8.853e-02,-0.94,-1.14
8.855e-02,-1,-0.84
8.857e-02,-0.98,-1.1
8.859e-02,-0.94,-0.8
8.861e-02,-0.94,-1.16
8.863e-02,-0.92,-0.84
8.865e-02,-1.08,-1.16
8.867e-02,-0.88,-0.84
8.868e-02,-1.04,-1.2
8.870e-02,-1.06,-0.86
8.872e-02,-0.92,-1.04
8.874e-02,-1,-0.8
8.876e-02,-0.94,-1.14
8.878e-02,-1,-0.86
8.880e-02,-1.06,-1.16
8.882e-02,-0.9,-0.78
8.884e-02,-0.86,-1.14
8.886e-02,-1.06,-0.78
8.888e-02,-0.98,-1.22
8.890e-02,-0.98,-0.86
8.892e-02,-0.98,-1.16
8.893e-02,-0.9,-0.84
8.895e-02,-1.14,-1.22
8.897e-02,-1.02,-0.78
8.899e-02,-0.98,-1.18
8.901e-02,-1.1,-0.76
8.903e-02,-0.94,-1.2
8.905e-02,-1.02,-0.84
8.907e-02,-1.06,-1.16
8.909e-02,-1.12,-0.86
8.911e-02,-0.9,-1.14
8.913e-02,-1.02,-0.86
8.915e-02,-1.02,-1.1
8.916e-02,-0.9,-0.78
8.918e-02,-1.06,-1.12
8.920e-02,-0.9,-0.76
8.922e-02,-0.96,-1.14
8.924e-02,-1,-0.84
8.926e-02,-1.04,-1.14
8.928e-02,-1,-0.84
8.930e-02,-1.04,-1.18
8.932e-02,-0.96,-0.86
8.934e-02,-1.06,-1.12
8.936e-02,-0.86,-0.78
8.938e-02,-1.04,-1.14
8.940e-02,-0.9,-0.8
8.941e-02,-0.86,-1.08
8.943e-02,-0.9,-0.74
8.945e-02,-0.88,-1.2
8.947e-02,-0.92,-0.84
8.949e-02,-0.98,-1.1
8.951e-02,-0.98,-0.8
8.953e-02,-0.94,-1.16
8.955e-02,-1.1,-0.84
8.957e-02,-0.9,-1.14
8.959e-02,-0.96,-0.84
8.961e-02,-0.9,-1.12
8.963e-02,-1,-0.82
8.964e-02,-1.06,-1.12
8.966e-02,-0.98,-0.82
8.968e-02,-0.9,-1.14
8.970e-02,-0.96,-0.72
8.972e-02,-0.86,-1.18
8.974e-02,-0.92,-0.78

